'Time and date','EEG Fp1','EEG Fp2','EEG F3','EEG F4','EEG F7','EEG F8','EEG T3','EEG T4','EEG C3','EEG C4','EEG T5','EEG T6','EEG P3','EEG P4','EEG O1','EEG O2','EEG Fz','EEG Cz','EEG Pz','EEG A2-A1','ECG ECG','EDF Annotations'
'hh:mm:ss.mmm dd/mm/yyyy','uV','uV','uV','uV','uV','uV','uV','uV','uV','uV','uV','uV','uV','uV','uV','uV','uV','uV','uV','uV','mV',''
'[00:00:00.000 01/01/2011]',-3.648,-3.581,-4.082,-0.237,-3.460,-1.022,-1.619,4.479,-1.958,2.807,2.790,5.206,1.077,7.087,4.313,10.168,-0.228,0.359,2.822,1.291,0.005,0.376
'[00:00:00.002 01/01/2011]',-4.236,-4.279,-4.767,-0.617,-3.709,-1.309,-0.877,5.607,-1.428,3.299,3.797,7.210,2.963,9.160,6.237,12.274,-0.603,4.161,5.311,0.973,0.002,0.376
'[00:00:00.004 01/01/2011]',-4.954,-5.020,-5.784,-1.193,-3.903,-1.524,0.172,7.056,-0.865,3.822,5.143,9.776,5.319,11.769,8.766,14.835,-1.163,8.862,8.367,0.579,-0.003,0.376
'[00:00:00.006 01/01/2011]',-5.704,-5.655,-7.080,-1.928,-4.019,-1.548,1.454,8.670,-0.370,4.274,6.742,12.628,7.871,14.623,11.722,17.598,-1.883,13.700,11.597,0.183,-0.010,0.376
'[00:00:00.008 01/01/2011]',-6.370,-6.045,-8.519,-2.747,-4.076,-1.278,2.843,10.249,-0.029,4.578,8.467,15.416,10.265,17.351,14.857,20.304,-2.682,17.718,14.534,-0.120,-0.018,0.376
'[00:00:00.010 01/01/2011]',-6.847,-6.124,-9.904,-3.532,-4.128,-0.672,4.183,11.589,0.129,4.687,10.184,17.780,12.189,19.610,17.904,22.748,-3.457,20.035,16.759,-0.238,-0.026,0.376
'[00:00:00.012 01/01/2011]',-7.067,-5.901,-11.023,-4.176,-4.237,0.230,5.329,12.533,0.124,4.594,11.777,19.468,13.415,21.120,20.617,24.801,-4.098,20.133,18.023,-0.122,-0.035,0.376
'[00:00:00.014 01/01/2011]',-7.024,-5.468,-11.716,-4.607,-4.423,1.278,6.178,12.982,0.011,4.302,13.147,20.350,13.840,21.718,22.768,26.373,-4.532,18.037,18.267,0.208,-0.043,0.376
'[00:00:00.016 01/01/2011]',-6.767,-4.965,-11.905,-4.828,-4.647,2.236,6.666,12.884,-0.171,3.772,14.200,20.419,13.469,21.336,24.139,27.339,-4.747,14.320,17.605,0.659,-0.050,0.376
'[00:00:00.018 01/01/2011]',-6.391,-4.522,-11.642,-4.939,-4.798,2.812,6.763,12.210,-0.432,2.905,14.844,19.736,12.358,19.949,24.497,27.484,-4.821,9.896,16.230,1.082,-0.056,0.157
'[00:00:00.020 01/01/2011]',-6.015,-4.235,-11.090,-5.105,-4.743,2.724,6.438,10.916,-0.852,1.537,14.966,18.370,10.564,17.545,23.627,26.515,-4.902,5.734,14.318,1.309,-0.060,0.157
'[00:00:00.022 01/01/2011]',-5.747,-4.138,-10.466,-5.524,-4.357,1.774,5.651,8.956,-1.557,-0.517,14.463,16.358,8.129,14.126,21.358,24.132,-5.177,2.541,11.954,1.206,-0.063,0.157
'[00:00:00.024 01/01/2011]',-5.662,-4.220,-9.978,-6.343,-3.572,-0.099,4.350,6.312,-2.663,-3.363,13.263,13.708,5.078,9.724,17.651,20.154,-5.801,0.592,9.135,0.712,-0.064,0.157
'[00:00:00.026 01/01/2011]',-5.775,-4.441,-9.738,-7.598,-2.394,-2.770,2.503,3.039,-4.199,-6.947,11.369,10.445,1.468,4.472,12.666,14.645,-6.842,-0.297,5.817,-0.136,-0.065,0.157
'[00:00:00.028 01/01/2011]',-6.034,-4.751,-9.720,-9.175,-0.894,-5.925,0.143,-0.687,-6.062,-11.008,8.883,6.659,-2.573,-1.384,6.748,7.952,-8.223,-0.592,1.994,-1.217,-0.064,0.157
'[00:00:00.030 01/01/2011]',-6.321,-5.088,-9.771,-10.816,0.825,-9.111,-2.602,-4.563,-8.007,-15.081,5.995,2.547,-6.813,-7.462,0.426,0.672,-9.727,-0.803,-2.230,-2.351,-0.063,0.157
'[00:00:00.032 01/01/2011]',-6.485,-5.382,-9.651,-12.178,2.636,-11.818,-5.491,-8.192,-9.690,-18.596,2.963,-1.589,-10.948,-13.294,-5.697,-6.476,-11.026,-1.246,-6.620,-3.361,-0.062,0.157
'[00:00:00.034 01/01/2011]',-6.366,-5.544,-9.137,-12.915,4.414,-13.585,-8.206,-11.166,-10.758,-21.015,0.047,-5.397,-14.639,-18.414,-11.073,-12.827,-11.783,-1.925,-10.817,-4.111,-0.061,0.157
'[00:00:00.036 01/01/2011]',-5.839,-5.439,-8.092,-12.787,6.026,-14.103,-10.415,-13.179,-10.947,-21.973,-2.537,-8.558,-17.596,-22.468,-15.320,-17.926,-11.730,-2.544,-14.448,-4.547,-0.060,0.000
'[00:00:00.038 01/01/2011]',-4.844,-4.923,-6.525,-11.712,7.346,-13.290,-11.844,-14.095,-10.147,-21.386,-4.658,-10.878,-19.629,-25.269,-18.278,-21.618,-10.750,-2.666,-17.195,-4.698,-0.059,0.000
'[00:00:00.040 01/01/2011]',-3.386,-3.846,-4.580,-9.790,8.271,-11.282,-12.332,-13.983,-8.426,-19.458,-6.269,-12.328,-20.693,-26.833,-20.014,-24.047,-8.904,-1.891,-18.880,-4.661,-0.059,0.000
'[00:00:00.042 01/01/2011]',-1.531,-2.105,-2.474,-7.259,8.755,-8.391,-11.854,-13.089,-5.990,-16.616,-7.384,-13.044,-20.855,-27.345,-20.726,-25.543,-6.401,-0.031,-19.491,-4.557,-0.060,0.000
'[00:00:00.044 01/01/2011]',0.619,0.319,-0.409,-4.417,8.845,-5.011,-10.516,-11.734,-3.105,-13.364,-8.031,-13.260,-20.253,-27.058,-20.654,-26.488,-3.532,2.837,-19.123,-4.493,-0.060,0.000
'[00:00:00.046 01/01/2011]',2.955,3.334,1.503,-1.534,8.710,-1.520,-8.487,-10.225,-0.016,-10.153,-8.224,-13.217,-19.027,-26.216,-19.972,-27.175,-0.580,6.392,-17.944,-4.526,-0.060,0.000
'[00:00:00.048 01/01/2011]',5.385,6.743,3.279,1.195,8.616,1.808,-5.960,-8.763,3.123,-7.272,-7.933,-13.078,-17.268,-24.969,-18.733,-27.727,2.242,10.192,-16.104,-4.655,-0.061,0.000
'[00:00:00.050 01/01/2011]',7.828,10.260,5.048,3.682,8.860,4.823,-3.102,-7.412,6.252,-4.806,-7.123,-12.882,-15.013,-23.369,-16.903,-28.094,4.821,13.816,-13.707,-4.830,-0.061,0.000
'[00:00:00.052 01/01/2011]',10.216,13.568,6.983,5.912,9.700,7.475,-0.034,-6.124,9.370,-2.680,-5.777,-12.559,-12.258,-21.388,-14.415,-28.111,7.127,16.950,-10.807,-4.976,-0.062,0.000
'[00:00:00.054 01/01/2011]',12.484,16.380,9.216,7.908,11.256,9.770,3.151,-4.797,12.494,-0.735,-3.934,-11.977,-9.024,-18.986,-11.263,-27.579,9.172,19.472,-7.456,-5.024,-0.062,0.000
'[00:00:00.056 01/01/2011]',14.556,18.491,11.772,9.675,13.488,11.706,6.365,-3.335,15.595,1.189,-1.721,-11.009,-5.387,-16.160,-7.557,-26.335,10.962,21.426,-3.738,-4.933,-0.063,0.000
'[00:00:00.058 01/01/2011]',16.352,19.811,14.543,11.196,16.178,13.248,9.502,-1.696,18.577,3.187,0.657,-9.583,-1.514,-12.988,-3.546,-24.292,12.483,22.965,0.191,-4.701,-0.063,0.000
'[00:00:00.060 01/01/2011]',17.798,20.376,17.308,12.418,19.008,14.324,12.435,0.094,21.287,5.271,2.947,-7.698,2.354,-9.614,0.431,-21.453,13.687,24.291,4.108,-4.352,-0.064,0.000
'[00:00:00.062 01/01/2011]',18.848,20.329,19.795,13.289,21.634,14.852,15.017,1.965,23.541,7.379,4.892,-5.426,5.938,-6.234,4.009,-17.898,14.532,25.579,7.752,-3.930,-0.064,0.000
'[00:00:00.064 01/01/2011]',19.476,19.867,21.766,13.782,23.764,14.799,17.113,3.820,25.183,9.418,6.283,-2.879,8.972,-3.045,6.882,-13.778,14.995,26.932,10.882,-3.476,-0.064,0.000
'[00:00:00.066 01/01/2011]',19.709,19.201,23.039,13.912,25.224,14.196,18.640,5.564,26.109,11.275,6.997,-0.205,11.264,-0.224,8.851,-9.321,15.103,28.358,13.310,-3.027,-0.063,0.000
'[00:00:00.068 01/01/2011]',19.596,18.518,23.545,13.730,25.954,13.153,19.589,7.111,26.294,12.847,7.009,2.441,12.713,2.098,9.846,-4.827,14.919,29.777,14.936,-2.607,-0.062,0.000
'[00:00:00.070 01/01/2011]',19.211,17.936,23.330,13.316,25.996,11.831,20.048,8.388,25.800,14.045,6.409,4.886,13.335,3.834,9.923,-0.667,14.527,31.057,15.759,-2.238,-0.061,0.000
'[00:00:00.072 01/01/2011]',18.637,17.522,22.504,12.752,25.455,10.399,20.188,9.333,24.757,14.799,5.369,6.962,13.243,4.952,9.236,2.773,14.018,32.048,15.860,-1.942,-0.059,0.000
'[00:00:00.074 01/01/2011]',17.943,17.266,21.239,12.106,24.451,8.995,20.230,9.905,23.347,15.061,4.127,8.522,12.632,5.490,8.023,5.159,13.457,32.629,15.389,-1.747,-0.057,0.000
'[00:00:00.076 01/01/2011]',17.186,17.119,19.706,11.431,23.101,7.698,20.412,10.095,21.767,14.827,2.941,9.470,11.737,5.545,6.574,6.293,12.885,32.732,14.550,-1.675,-0.056,0.000
'[00:00:00.078 01/01/2011]',16.395,17.002,18.062,10.760,21.510,6.533,20.921,9.945,20.208,14.147,2.054,9.802,10.806,5.282,5.188,6.178,12.321,32.363,13.561,-1.738,-0.054,0.000
'[00:00:00.080 01/01/2011]',15.580,16.805,16.437,10.120,19.782,5.490,21.851,9.542,18.816,13.125,1.635,9.599,10.051,4.895,4.151,5.027,11.772,31.589,12.642,-1.929,-0.053,0.000
'[00:00:00.082 01/01/2011]',14.731,16.420,14.919,9.530,18.028,4.544,23.192,9.002,17.674,11.905,1.764,9.031,9.626,4.584,3.686,3.210,11.242,30.501,11.977,-2.217,-0.052,0.000
'[00:00:00.084 01/01/2011]',13.833,15.761,13.554,9.002,16.381,3.676,24.821,8.444,16.789,10.622,2.414,8.311,9.603,4.493,3.904,1.172,10.737,29.198,11.680,-2.552,-0.053,0.000
'[00:00:00.086 01/01/2011]',12.871,14.771,12.368,8.529,14.982,2.872,26.534,7.943,16.097,9.383,3.453,7.628,9.958,4.678,4.803,-0.672,10.249,27.745,11.783,-2.874,-0.054,0.000
'[00:00:00.088 01/01/2011]',11.847,13.449,11.361,8.085,13.955,2.118,28.086,7.507,15.475,8.211,4.690,7.115,10.597,5.096,6.248,-2.026,9.761,26.163,12.224,-3.130,-0.055,0.000
'[00:00:00.090 01/01/2011]',10.788,11.867,10.523,7.621,13.389,1.387,29.242,7.086,14.793,7.061,5.916,6.813,11.360,5.614,8.030,-2.748,9.237,24.427,12.871,-3.281,-0.056,0.000
'[00:00:00.092 01/01/2011]',9.736,10.148,9.845,7.094,13.302,0.638,29.814,6.586,13.939,5.841,6.956,6.682,12.076,6.059,9.901,-2.841,8.642,22.479,13.546,-3.311,-0.056,0.000
'[00:00:00.094 01/01/2011]',8.753,8.462,9.326,6.467,13.634,-0.165,29.686,5.933,12.862,4.462,7.700,6.653,12.594,6.275,11.647,-2.408,7.949,20.269,14.079,-3.221,-0.055,0.000
'[00:00:00.096 01/01/2011]',7.909,6.979,8.976,5.749,14.249,-1.041,28.838,5.109,11.591,2.895,8.129,6.663,12.813,6.172,13.121,-1.601,7.171,17.781,14.332,-3.026,-0.053,0.000
'[00:00:00.098 01/01/2011]',7.267,5.842,8.813,4.995,14.963,-1.976,27.336,4.179,10.235,1.212,8.296,6.699,12.710,5.751,14.258,-0.572,6.356,15.074,14.238,-2.750,-0.050,0.000
'[00:00:00.100 01/01/2011]',6.866,5.126,8.869,4.291,15.580,-2.912,25.340,3.282,8.951,-0.422,8.288,6.806,12.333,5.096,15.062,0.560,5.590,12.290,13.794,-2.419,-0.047,0.000
'[00:00:00.102 01/01/2011]',6.726,4.839,9.153,3.746,15.938,-3.775,23.070,2.593,7.919,-1.783,8.198,7.057,11.783,4.331,15.580,1.691,4.976,9.667,13.055,-2.066,-0.044,0.000
'[00:00:00.104 01/01/2011]',6.830,4.919,9.669,3.443,15.933,-4.483,20.774,2.252,7.268,-2.670,8.076,7.511,11.170,3.574,15.851,2.733,4.599,7.476,12.093,-1.725,-0.042,0.000
'[00:00:00.106 01/01/2011]',7.134,5.254,10.367,3.420,15.543,-4.994,18.690,2.309,7.042,-2.962,7.912,8.156,10.571,2.885,15.869,3.578,4.498,5.973,10.971,-1.440,-0.041,0.000
'[00:00:00.108 01/01/2011]',7.563,5.719,11.156,3.645,14.816,-5.298,16.986,2.688,7.171,-2.684,7.635,8.882,9.998,2.221,15.569,4.095,4.653,5.315,9.714,-1.255,-0.041,0.000
'[00:00:00.110 01/01/2011]',8.023,6.190,11.880,4.021,13.833,-5.425,15.727,3.195,7.477,-2.005,7.142,9.478,9.383,1.461,14.848,4.130,4.972,5.486,8.294,-1.206,-0.043,0.000
'[00:00:00.112 01/01/2011]',8.399,6.565,12.353,4.411,12.693,-5.416,14.853,3.556,7.689,-1.217,6.332,9.681,8.582,0.420,13.580,3.523,5.324,6.280,6.645,-1.312,-0.045,0.000
'[00:00:00.114 01/01/2011]',8.578,6.763,12.381,4.671,11.457,-5.300,14.183,3.500,7.518,-0.651,5.139,9.239,7.422,-1.087,11.674,2.161,5.565,7.316,4.687,-1.565,-0.048,0.000
'[00:00:00.116 01/01/2011]',8.457,6.723,11.816,4.694,10.152,-5.080,13.471,2.825,6.711,-0.598,3.559,7.987,5.754,-3.179,9.118,-0.010,5.575,8.129,2.364,-1.928,-0.050,0.000
'[00:00:00.118 01/01/2011]',7.967,6.408,10.581,4.430,8.747,-4.732,12.466,1.455,5.132,-1.243,1.674,5.903,3.506,-5.866,6.012,-2.933,5.290,8.278,-0.315,-2.343,-0.053,0.000
'[00:00:00.120 01/01/2011]',7.091,5.804,8.713,3.909,7.191,-4.215,10.983,-0.531,2.796,-2.606,-0.371,3.120,0.718,-9.038,2.566,-6.443,4.727,7.478,-3.265,-2.744,-0.054,0.000
'[00:00:00.122 01/01/2011]',5.873,4.936,6.351,3.220,5.428,-3.513,8.965,-2.927,-0.120,-4.553,-2.384,-0.088,-2.444,-12.461,-0.933,-10.281,3.964,5.672,-6.315,-3.075,-0.054,0.000
'[00:00:00.124 01/01/2011]',4.413,3.870,3.721,2.496,3.425,-2.644,6.482,-5.435,-3.305,-6.820,-4.164,-3.373,-5.720,-15.830,-4.169,-14.116,3.132,3.062,-9.243,-3.304,-0.054,0.000
'[00:00:00.126 01/01/2011]',2.847,2.721,1.076,1.866,1.204,-1.695,3.717,-7.739,-6.382,-9.082,-5.541,-6.379,-8.807,-18.819,-6.864,-17.618,2.372,0.048,-11.809,-3.429,-0.053,0.000
'[00:00:00.128 01/01/2011]',1.330,1.624,-1.344,1.426,-1.158,-0.805,0.903,-9.565,-8.985,-11.022,-6.409,-8.816,-11.434,-21.144,-8.827,-20.504,1.798,-2.874,-13.807,-3.477,-0.051,0.000
'[00:00:00.130 01/01/2011]',-0.010,0.705,-3.366,1.214,-3.521,-0.158,-1.745,-10.728,-10.841,-12.395,-6.748,-10.500,-13.390,-22.609,-9.982,-22.568,1.471,-5.242,-15.104,-3.492,-0.050,0.000
'[00:00:00.132 01/01/2011]',-1.097,0.040,-4.892,1.199,-5.699,0.066,-4.069,-11.164,-11.816,-13.072,-6.620,-11.369,-14.580,-23.128,-10.364,-23.712,1.374,-6.749,-15.661,-3.514,-0.049,0.000
'[00:00:00.134 01/01/2011]',-1.914,-0.381,-5.904,1.288,-7.488,-0.275,-5.991,-10.929,-11.933,-13.056,-6.161,-11.474,-15.021,-22.751,-10.095,-23.934,1.433,-7.298,-15.526,-3.571,-0.049,0.000
'[00:00:00.136 01/01/2011]',-2.498,-0.659,-6.433,1.366,-8.684,-1.248,-7.492,-10.180,-11.354,-12.469,-5.535,-10.959,-14.833,-21.629,-9.348,-23.312,1.529,-7.014,-14.829,-3.665,-0.050,0.000
'[00:00:00.138 01/01/2011]',-2.917,-0.959,-6.538,1.309,-9.126,-2.804,-8.579,-9.144,-10.318,-11.518,-4.911,-10.030,-14.187,-19.992,-8.309,-21.981,1.534,-6.180,-13.737,-3.773,-0.051,0.000
'[00:00:00.140 01/01/2011]',-3.243,-1.457,-6.262,1.040,-8.729,-4.787,-9.244,-8.060,-9.079,-10.433,-4.415,-8.918,-13.276,-18.094,-7.164,-20.117,1.355,-5.132,-12.426,-3.858,-0.054,0.000
'[00:00:00.142 01/01/2011]',-3.517,-2.274,-5.636,0.533,-7.520,-6.938,-9.460,-7.139,-7.836,-9.427,-4.105,-7.843,-12.263,-16.168,-6.064,-17.913,0.955,-4.164,-11.046,-3.882,-0.056,0.000
'[00:00:00.144 01/01/2011]',-3.737,-3.420,-4.670,-0.157,-5.649,-8.942,-9.191,-6.518,-6.704,-8.642,-3.979,-6.985,-11.267,-14.384,-5.146,-15.570,0.367,-3.430,-9.704,-3.817,-0.058,0.000
'[00:00:00.146 01/01/2011]',-3.855,-4.780,-3.374,-0.908,-3.366,-10.479,-8.426,-6.234,-5.691,-8.129,-3.972,-6.451,-10.339,-12.823,-4.503,-13.281,-0.298,-2.915,-8.453,-3.655,-0.059,0.000
'[00:00:00.148 01/01/2011]',-3.788,-6.122,-1.766,-1.546,-0.971,-11.277,-7.205,-6.222,-4.727,-7.837,-3.993,-6.264,-9.479,-11.487,-4.191,-11.220,-0.880,-2.449,-7.303,-3.412,-0.060,0.000
'[00:00:00.150 01/01/2011]',-3.442,-7.147,0.123,-1.880,1.250,-11.157,-5.639,-6.346,-3.708,-7.647,-3.954,-6.360,-8.648,-10.323,-4.226,-9.531,-1.192,-1.781,-6.246,-3.118,-0.061,0.000
'[00:00:00.152 01/01/2011]',-2.732,-7.565,2.236,-1.722,3.109,-10.066,-3.886,-6.426,-2.528,-7.397,-3.803,-6.629,-7.808,-9.262,-4.589,-8.317,-1.056,-0.679,-5.272,-2.809,-0.060,0.000
'[00:00:00.154 01/01/2011]',-1.600,-7.142,4.509,-0.941,4.558,-8.060,-2.114,-6.302,-1.127,-6.931,-3.534,-6.931,-6.941,-8.270,-5.234,-7.645,-0.333,0.991,-4.393,-2.514,-0.060,0.000
'[00:00:00.156 01/01/2011]',-0.026,-5.763,6.870,0.535,5.703,-5.300,-0.457,-5.858,0.491,-6.133,-3.191,-7.157,-6.070,-7.350,-6.114,-7.548,1.050,3.197,-3.656,-2.249,-0.060,0.000
'[00:00:00.158 01/01/2011]',1.965,-3.435,9.260,2.687,6.748,-2.004,1.002,-5.048,2.262,-4.942,-2.847,-7.237,-5.260,-6.563,-7.192,-8.037,3.086,5.751,-3.133,-2.012,-0.061,0.000
'[00:00:00.160 01/01/2011]',4.297,-0.289,11.593,5.404,7.900,1.588,2.245,-3.898,4.075,-3.371,-2.580,-7.160,-4.601,-5.988,-8.443,-9.107,5.678,8.354,-2.900,-1.792,-0.061,0.000
'[00:00:00.162 01/01/2011]',6.844,3.440,13.797,8.502,9.283,5.230,3.285,-2.481,5.781,-1.498,-2.453,-6.945,-4.196,-5.706,-9.855,-10.725,8.651,10.685,-3.014,-1.571,-0.063,0.000
'[00:00:00.164 01/01/2011]',9.425,7.444,15.739,11.728,10.856,8.699,4.134,-0.909,7.227,0.543,-2.504,-6.630,-4.131,-5.765,-11.427,-12.839,11.770,12.482,-3.499,-1.342,-0.064,0.000
'[00:00:00.166 01/01/2011]',11.825,11.376,17.267,14.794,12.412,11.797,4.780,0.702,8.255,2.575,-2.747,-6.236,-4.467,-6.169,-13.143,-15.357,14.749,13.606,-4.340,-1.107,-0.065,0.000
'[00:00:00.168 01/01/2011]',13.806,14.890,18.198,17.415,13.632,14.354,5.186,2.231,8.728,4.395,-3.193,-5.763,-5.233,-6.881,-14.977,-18.161,17.303,14.054,-5.488,-0.882,-0.066,0.000
'[00:00:00.170 01/01/2011]',15.155,17.678,18.364,19.341,14.193,16.239,5.322,3.569,8.561,5.805,-3.848,-5.198,-6.416,-7.833,-16.881,-21.089,19.178,13.939,-6.884,-0.692,-0.067,0.000
'[00:00:00.172 01/01/2011]',15.736,19.523,17.689,20.406,13.880,17.365,5.200,4.623,7.732,6.639,-4.737,-4.523,-7.962,-8.947,-18.792,-23.964,20.194,13.439,-8.461,-0.556,-0.067,0.000
'[00:00:00.174 01/01/2011]',15.517,20.331,16.202,20.542,12.672,17.699,4.896,5.330,6.319,6.811,-5.877,-3.741,-9.775,-10.134,-20.630,-26.605,20.283,12.744,-10.162,-0.489,-0.066,0.000
'[00:00:00.176 01/01/2011]',14.592,20.124,14.088,19.813,10.765,17.278,4.559,5.647,4.503,6.321,-7.270,-2.891,-11.719,-11.308,-22.311,-28.846,19.499,12.006,-11.923,-0.489,-0.065,0.000
'[00:00:00.178 01/01/2011]',13.162,19.051,11.660,18.377,8.516,16.189,4.367,5.581,2.550,5.266,-8.875,-2.043,-13.617,-12.388,-23.732,-30.552,18.003,11.315,-13.675,-0.544,-0.062,0.000
'[00:00:00.180 01/01/2011]',11.492,17.341,9.308,16.474,6.355,14.569,4.481,5.163,0.762,3.820,-10.598,-1.293,-15.288,-13.299,-24.795,-31.644,16.040,10.706,-15.321,-0.633,-0.059,0.000
'[00:00:00.182 01/01/2011]',9.851,15.252,7.402,14.368,4.665,12.574,4.989,4.449,-0.592,2.177,-12.295,-0.738,-16.563,-13.985,-25.391,-32.096,13.884,10.155,-16.739,-0.738,-0.056,0.000
'[00:00:00.184 01/01/2011]',8.455,13.037,6.213,12.300,3.700,10.367,5.890,3.499,-1.343,0.505,-13.790,-0.457,-17.329,-14.425,-25.440,-31.936,11.781,9.599,-17.809,-0.843,-0.053,0.000
'[00:00:00.186 01/01/2011]',7.431,10.906,5.845,10.457,3.539,8.100,7.086,2.376,-1.471,-1.096,-14.919,-0.499,-17.548,-14.636,-24.889,-31.252,9.920,8.946,-18.426,-0.938,-0.050,0.000
'[00:00:00.188 01/01/2011]',6.818,9.029,6.218,8.948,4.097,5.919,8.429,1.121,-1.111,-2.599,-15.547,-0.875,-17.265,-14.679,-23.741,-30.175,8.408,8.099,-18.548,-1.024,-0.048,0.000
'[00:00:00.190 01/01/2011]',6.578,7.532,7.116,7.813,5.166,3.959,9.759,-0.236,-0.509,-4.034,-15.617,-1.579,-16.600,-14.652,-22.084,-28.876,7.280,6.964,-18.214,-1.102,-0.046,0.000
'[00:00:00.192 01/01/2011]',6.630,6.496,8.243,7.039,6.482,2.339,10.942,-1.674,0.049,-5.452,-15.152,-2.595,-15.713,-14.664,-20.081,-27.552,6.512,5.491,-17.557,-1.181,-0.046,0.000
'[00:00:00.194 01/01/2011]',6.884,5.966,9.298,6.582,7.784,1.165,11.886,-3.173,0.306,-6.876,-14.261,-3.911,-14.775,-14.826,-17.967,-26.403,6.053,3.698,-16.786,-1.271,-0.046,0.000
'[00:00:00.196 01/01/2011]',7.254,5.941,10.080,6.390,8.854,0.507,12.539,-4.697,0.113,-8.275,-13.111,-5.512,-13.929,-15.207,-16.004,-25.618,5.850,1.684,-16.136,-1.383,-0.047,0.000
'[00:00:00.198 01/01/2011]',7.673,6.347,10.474,6.417,9.556,0.376,12.872,-6.192,-0.556,-9.560,-11.901,-7.368,-13.271,-15.836,-14.448,-25.343,5.852,-0.375,-15.823,-1.532,-0.048,0.000
'[00:00:00.200 01/01/2011]',8.086,7.063,10.482,6.626,9.833,0.720,12.886,-7.584,-1.608,-10.605,-10.827,-9.413,-12.836,-16.684,-13.493,-25.671,6.027,-2.266,-15.984,-1.726,-0.050,0.000
'[00:00:00.202 01/01/2011]',8.447,7.922,10.190,6.983,9.718,1.425,12.602,-8.780,-2.875,-11.294,-10.048,-11.523,-12.621,-17.673,-13.237,-26.610,6.346,-3.781,-16.647,-1.962,-0.052,0.000
'[00:00:00.204 01/01/2011]',8.717,8.755,9.725,7.464,9.318,2.333,12.090,-9.689,-4.168,-11.555,-9.654,-13.524,-12.581,-18.685,-13.683,-28.109,6.790,-4.777,-17.728,-2.225,-0.053,0.000
'[00:00:00.206 01/01/2011]',8.878,9.417,9.227,8.038,8.793,3.286,11.473,-10.227,-5.310,-11.380,-9.656,-15.211,-12.669,-19.593,-14.732,-30.045,7.333,-5.213,-19.049,-2.485,-0.054,0.000
'[00:00:00.208 01/01/2011]',8.933,9.835,8.838,8.688,8.324,4.158,10.924,-10.337,-6.157,-10.834,-9.982,-16.389,-12.819,-20.265,-16.214,-32.266,7.955,-5.152,-20.389,-2.702,-0.054,0.000
'[00:00:00.210 01/01/2011]',8.927,10.011,8.664,9.396,8.077,4.897,10.636,-9.988,-6.599,-10.012,-10.484,-16.907,-12.971,-20.595,-17.917,-34.580,8.644,-4.723,-21.505,-2.830,-0.052,0.000
'[00:00:00.212 01/01/2011]',8.921,10.007,8.802,10.166,8.156,5.530,10.779,-9.183,-6.552,-9.020,-10.967,-16.695,-13.056,-20.501,-19.620,-36.811,9.394,-4.074,-22.189,-2.834,-0.050,0.000
'[00:00:00.214 01/01/2011]',8.984,9.926,9.319,11.008,8.587,6.157,11.442,-7.956,-5.959,-7.937,-11.222,-15.768,-12.998,-19.940,-21.105,-38.739,10.214,-3.320,-22.308,-2.690,-0.047,0.000
'[00:00:00.216 01/01/2011]',9.171,9.866,10.203,11.928,9.297,6.905,12.588,-6.371,-4.805,-6.813,-11.061,-14.222,-12.728,-18.911,-22.193,-40.181,11.110,-2.523,-21.797,-2.394,-0.044,0.000
'[00:00:00.218 01/01/2011]',9.490,9.879,11.404,12.905,10.143,7.880,14.051,-4.530,-3.152,-5.684,-10.372,-12.211,-12.204,-17.466,-22.762,-40.968,12.064,-1.713,-20.702,-1.967,-0.040,0.000
'[00:00:00.220 01/01/2011]',9.892,9.954,12.777,13.879,10.942,9.111,15.554,-2.573,-1.167,-4.597,-9.154,-9.943,-11.433,-15.721,-22.781,-40.995,13.019,-0.899,-19.163,-1.445,-0.036,0.000
'[00:00:00.222 01/01/2011]',10.276,10.018,14.121,14.742,11.520,10.522,16.782,-0.685,0.895,-3.632,-7.519,-7.654,-10.485,-13.849,-22.316,-40.246,13.872,-0.121,-17.414,-0.886,-0.033,0.000
'[00:00:00.224 01/01/2011]',10.514,9.950,15.220,15.340,11.755,11.934,17.458,0.927,2.724,-2.893,-5.685,-5.593,-9.489,-12.064,-21.529,-38.794,14.479,0.550,-15.742,-0.355,-0.030,0.000
'[00:00:00.226 01/01/2011]',10.492,9.630,15.890,15.518,11.598,13.102,17.409,2.065,4.031,-2.483,-3.920,-3.994,-8.597,-10.575,-20.641,-36.821,14.689,1.023,-14.419,0.082,-0.029,0.000
'[00:00:00.228 01/01/2011]',10.136,8.971,16.028,15.167,11.075,13.778,16.615,2.593,4.634,-2.457,-2.476,-3.029,-7.935,-9.544,-19.872,-34.540,14.393,1.246,-13.640,0.371,-0.029,0.000
'[00:00:00.230 01/01/2011]',9.457,7.953,15.652,14.259,10.270,13.792,15.199,2.483,4.519,-2.777,-1.513,-2.776,-7.556,-9.021,-19.362,-32.164,13.559,1.240,-13.456,0.472,-0.032,0.000
'[00:00:00.232 01/01/2011]',8.530,6.648,14.885,12.876,9.290,13.089,13.391,1.826,3.852,-3.299,-1.050,-3.182,-7.407,-8.937,-19.139,-29.833,12.265,1.119,-13.748,0.376,-0.036,0.000
'[00:00:00.234 01/01/2011]',7.501,5.203,13.919,11.208,8.234,11.757,11.468,0.837,2.933,-3.808,-0.971,-4.066,-7.348,-9.112,-19.089,-27.604,10.687,1.086,-14.251,0.101,-0.041,0.000
'[00:00:00.236 01/01/2011]',6.525,3.815,12.953,9.507,7.183,10.009,9.687,-0.214,2.109,-4.070,-1.058,-5.167,-7.187,-9.303,-18.991,-25.453,9.065,1.368,-14.613,-0.313,-0.047,0.000
'[00:00:00.238 01/01/2011]',5.742,2.684,12.145,8.031,6.209,8.114,8.242,-1.066,1.679,-3.910,-1.064,-6.204,-6.747,-9.282,-18.604,-23.335,7.645,2.150,-14.510,-0.814,-0.053,0.000
'[00:00:00.240 01/01/2011]',5.254,1.964,11.591,6.987,5.380,6.351,7.244,-1.532,1.818,-3.262,-0.791,-6.950,-5.923,-8.906,-17.736,-21.239,6.622,3.517,-13.723,-1.346,-0.058,0.000
'[00:00:00.242 01/01/2011]',5.099,1.743,11.307,6.490,4.795,4.949,6.730,-1.546,2.548,-2.191,-0.149,-7.298,-4.715,-8.160,-16.313,-19.240,6.109,5.430,-12.211,-1.863,-0.062,0.000
'[00:00:00.244 01/01/2011]',5.265,2.003,11.264,6.552,4.579,4.056,6.676,-1.158,3.771,-0.849,0.824,-7.258,-3.223,-7.140,-14.400,-17.506,6.122,7.728,-10.117,-2.333,-0.064,0.000
'[00:00:00.246 01/01/2011]',5.696,2.647,11.415,7.086,4.859,3.725,7.006,-0.505,5.317,0.563,1.982,-6.947,-1.613,-6.045,-12.187,-16.262,6.587,10.179,-7.729,-2.738,-0.065,0.000
'[00:00:00.248 01/01/2011]',6.307,3.510,11.701,7.947,5.732,3.934,7.608,0.244,6.993,1.862,3.110,-6.529,-0.081,-5.101,-9.934,-15.735,7.371,12.523,-5.404,-3.072,-0.065,0.000
'[00:00:00.250 01/01/2011]',6.996,4.396,12.079,8.960,7.204,4.586,8.330,0.919,8.624,2.911,3.987,-6.173,1.191,-4.515,-7.911,-16.084,8.318,14.534,-3.486,-3.337,-0.064,0.000
'[00:00:00.252 01/01/2011]',7.664,5.121,12.503,9.951,9.159,5.541,8.989,1.393,10.053,3.625,4.429,-6.006,2.043,-4.438,-6.355,-17.376,9.264,16.032,-2.245,-3.542,-0.063,0.000
'[00:00:00.254 01/01/2011]',8.209,5.542,12.912,10.768,11.354,6.636,9.392,1.579,11.136,3.962,4.313,-6.113,2.368,-4.946,-5.443,-19.560,10.058,16.915,-1.838,-3.697,-0.061,0.000
'[00:00:00.256 01/01/2011]',8.555,5.591,13.234,11.293,13.457,7.696,9.376,1.424,11.728,3.894,3.603,-6.524,2.080,-6.055,-5.282,-22.505,10.586,17.133,-2.300,-3.816,-0.060,0.000
'[00:00:00.258 01/01/2011]',8.653,5.285,13.395,11.466,15.126,8.573,8.846,0.916,11.704,3.401,2.331,-7.239,1.135,-7.713,-5.905,-26.015,10.775,16.706,-3.564,-3.912,-0.059,0.000
'[00:00:00.260 01/01/2011]',8.506,4.720,13.349,11.291,16.091,9.177,7.807,0.090,10.987,2.492,0.604,-8.219,-0.462,-9.810,-7.275,-29.875,10.620,15.719,-5.478,-3.993,-0.059,0.000
'[00:00:00.262 01/01/2011]',8.169,4.051,13.091,10.851,16.226,9.504,6.377,-0.967,9.586,1.228,-1.423,-9.384,-2.631,-12.183,-9.282,-33.845,10.193,14.327,-7.834,-4.056,-0.059,0.000
'[00:00:00.264 01/01/2011]',7.745,3.462,12.675,10.304,15.567,9.645,4.743,-2.107,7.630,-0.260,-3.556,-10.607,-5.217,-14.614,-11.741,-37.690,9.642,12.754,-10.392,-4.090,-0.059,0.000
'[00:00:00.266 01/01/2011]',7.353,3.123,12.207,9.850,14.302,9.759,3.122,-3.131,5.346,-1.766,-5.600,-11.723,-7.986,-16.856,-14.409,-41.153,9.155,11.277,-12.906,-4.078,-0.060,0.000
'[00:00:00.268 01/01/2011]',7.110,3.142,11.811,9.703,12.702,10.036,1.690,-3.831,3.024,-3.044,-7.378,-12.552,-10.672,-18.668,-17.019,-43.999,8.942,10.174,-15.151,-3.994,-0.061,0.000
'[00:00:00.270 01/01/2011]',7.083,3.541,11.604,10.007,11.049,10.619,0.532,-4.035,0.944,-3.867,-8.761,-12.934,-13.018,-19.856,-19.323,-46.027,9.155,9.668,-16.950,-3.824,-0.061,0.000
'[00:00:00.272 01/01/2011]',7.271,4.240,11.637,10.808,9.571,11.554,-0.360,-3.659,-0.694,-4.084,-9.685,-12.772,-14.826,-20.314,-21.148,-47.101,9.841,9.852,-18.197,-3.559,-0.061,0.000
'[00:00:00.274 01/01/2011]',7.605,5.079,11.898,12.017,8.404,12.747,-1.085,-2.725,-1.813,-3.656,-10.162,-12.055,-16.002,-20.038,-22.403,-47.174,10.930,10.653,-18.863,-3.210,-0.060,0.000
'[00:00:00.276 01/01/2011]',7.960,5.851,12.294,13.425,7.597,13.997,-1.762,-1.360,-2.444,-2.673,-10.262,-10.854,-16.543,-19.129,-23.100,-46.272,12.233,11.833,-18.984,-2.795,-0.059,0.000
'[00:00:00.278 01/01/2011]',8.201,6.371,12.695,14.763,7.128,15.040,-2.486,0.239,-2.694,-1.312,-10.082,-9.289,-16.520,-17.740,-23.306,-44.488,13.496,13.051,-18.634,-2.338,-0.057,0.000
'[00:00:00.280 01/01/2011]',8.220,6.518,12.956,15.768,6.934,15.650,-3.277,1.870,-2.676,0.218,-9.721,-7.488,-16.032,-16.039,-23.094,-41.922,14.469,13.949,-17.888,-1.862,-0.056,0.000
'[00:00:00.282 01/01/2011]',7.967,6.265,12.968,16.249,6.938,15.691,-4.074,3.363,-2.472,1.722,-9.242,-5.548,-15.155,-14.165,-22.517,-38.665,14.963,14.261,-16.802,-1.381,-0.054,0.000
'[00:00:00.284 01/01/2011]',7.463,5.681,12.682,16.125,7.060,15.178,-4.753,4.628,-2.109,3.058,-8.665,-3.515,-13.943,-12.207,-21.570,-34.772,14.892,13.884,-15.403,-0.902,-0.052,0.000
'[00:00:00.286 01/01/2011]',6.775,4.890,12.107,15.440,7.222,14.242,-5.183,5.637,-1.579,4.150,-7.982,-1.391,-12.425,-10.207,-20.224,-30.290,14.286,12.899,-13.707,-0.428,-0.051,0.000
'[00:00:00.288 01/01/2011]',5.997,4.020,11.305,14.315,7.348,13.083,-5.270,6.416,-0.872,4.959,-7.176,0.831,-10.643,-8.199,-18.455,-25.296,13.249,11.535,-11.750,0.038,-0.050,0.000
'[00:00:00.290 01/01/2011]',5.206,3.164,10.356,12.917,7.374,11.903,-4.979,7.004,-0.025,5.471,-6.263,3.141,-8.670,-6.220,-16.297,-19.939,11.938,10.072,-9.613,0.487,-0.049,0.000
'[00:00:00.292 01/01/2011]',4.450,2.349,9.365,11.408,7.246,10.845,-4.346,7.427,0.877,5.659,-5.304,5.485,-6.638,-4.346,-13.869,-14.475,10.501,8.755,-7.447,0.904,-0.048,0.000
'[00:00:00.294 01/01/2011]',3.747,1.563,8.401,9.928,6.940,9.981,-3.437,7.694,1.719,5.513,-4.399,7.765,-4.712,-2.675,-11.357,-9.239,9.078,7.719,-5.421,1.278,-0.048,0.000
'[00:00:00.296 01/01/2011]',3.101,0.787,7.530,8.583,6.447,9.314,-2.314,7.803,2.402,5.030,-3.667,9.871,-3.059,-1.303,-8.987,-4.602,7.781,6.973,-3.717,1.593,-0.048,0.000
'[00:00:00.298 01/01/2011]',2.523,0.029,6.804,7.470,5.779,8.824,-1.017,7.768,2.879,4.256,-3.198,11.692,-1.792,-0.294,-6.956,-0.897,6.700,6.434,-2.453,1.843,-0.048,0.000
'[00:00:00.300 01/01/2011]',2.038,-0.657,6.257,6.661,4.948,8.484,0.437,7.622,3.197,3.296,-3.012,13.169,-0.935,0.352,-5.382,1.664,5.910,5.981,-1.650,2.026,-0.048,0.000
'[00:00:00.302 01/01/2011]',1.675,-1.190,5.896,6.213,3.960,8.279,2.022,7.428,3.470,2.304,-3.047,14.267,-0.420,0.698,-4.265,3.023,5.468,5.528,-1.213,2.142,-0.048,0.000
'[00:00:00.304 01/01/2011]',1.456,-1.501,5.717,6.141,2.823,8.193,3.680,7.255,3.853,1.461,-3.169,14.987,-0.109,0.853,-3.522,3.295,5.391,5.061,-0.968,2.186,-0.048,0.000
'[00:00:00.306 01/01/2011]',1.378,-1.571,5.684,6.421,1.553,8.191,5.307,7.149,4.479,0.923,-3.210,15.345,0.165,0.935,-2.999,2.716,5.655,4.634,-0.692,2.150,-0.048,0.000
'[00:00:00.308 01/01/2011]',1.405,-1.439,5.743,6.962,0.194,8.226,6.783,7.123,5.409,0.783,-3.020,15.347,0.544,1.035,-2.549,1.589,6.178,4.332,-0.194,2.024,-0.046,0.000
'[00:00:00.310 01/01/2011]',1.485,-1.199,5.830,7.646,-1.165,8.250,8.011,7.136,6.614,1.041,-2.492,14.994,1.107,1.185,-2.061,0.207,6.840,4.229,0.636,1.804,-0.043,0.000
'[00:00:00.312 01/01/2011]',1.566,-0.947,5.878,8.337,-2.400,8.247,8.978,7.124,7.977,1.611,-1.605,14.292,1.863,1.367,-1.495,-1.179,7.511,4.331,1.800,1.499,-0.040,0.000
'[00:00:00.314 01/01/2011]',1.628,-0.741,5.845,8.913,-3.375,8.264,9.745,7.016,9.331,2.344,-0.408,13.276,2.755,1.527,-0.861,-2.411,8.072,4.576,3.200,1.140,-0.037,0.000
'[00:00:00.316 01/01/2011]',1.680,-0.580,5.705,9.301,-3.980,8.418,10.430,6.772,10.501,3.078,0.983,12.014,3.683,1.613,-0.212,-3.390,8.445,4.848,4.663,0.777,-0.033,0.000
'[00:00:00.318 01/01/2011]',1.756,-0.403,5.454,9.468,-4.176,8.858,11.138,6.383,11.361,3.676,2.423,10.617,4.548,1.596,0.387,-4.080,8.604,5.011,5.998,0.472,-0.030,0.000
'[00:00:00.320 01/01/2011]',1.893,-0.143,5.125,9.431,-4.015,9.715,11.878,5.903,11.843,4.066,3.756,9.231,5.261,1.496,0.888,-4.465,8.558,4.961,7.046,0.283,-0.027,0.000
'[00:00:00.322 01/01/2011]',2.105,0.243,4.759,9.223,-3.643,11.026,12.541,5.408,11.947,4.247,4.839,7.992,5.768,1.379,1.261,-4.545,8.345,4.643,7.710,0.252,-0.026,0.000
'[00:00:00.324 01/01/2011]',2.367,0.730,4.411,8.890,-3.260,12.701,12.922,4.986,11.740,4.282,5.575,7.024,6.059,1.334,1.511,-4.307,8.014,4.054,7.982,0.392,-0.025,0.000
'[00:00:00.326 01/01/2011]',2.624,1.232,4.141,8.469,-3.085,14.533,12.801,4.705,11.319,4.263,5.922,6.405,6.160,1.448,1.664,-3.750,7.607,3.238,7.927,0.686,-0.024,0.000
'[00:00:00.328 01/01/2011]',2.812,1.637,3.995,7.996,-3.277,16.225,12.043,4.613,10.800,4.284,5.912,6.173,6.132,1.778,1.773,-2.888,7.159,2.240,7.664,1.095,-0.024,0.000
'[00:00:00.330 01/01/2011]',2.888,1.842,4.018,7.501,-3.907,17.498,10.672,4.723,10.289,4.414,5.641,6.315,6.054,2.338,1.915,-1.749,6.710,1.119,7.343,1.561,-0.024,0.000
'[00:00:00.332 01/01/2011]',2.847,1.812,4.230,7.030,-4.916,18.151,8.880,5.023,9.875,4.687,5.253,6.790,6.011,3.105,2.173,-0.400,6.298,-0.065,7.103,2.031,-0.023,0.000
'[00:00:00.334 01/01/2011]',2.732,1.578,4.647,6.636,-6.139,18.132,6.975,5.482,9.631,5.093,4.906,7.525,6.074,4.011,2.632,1.062,5.979,-1.222,7.047,2.456,-0.021,0.000
'[00:00:00.336 01/01/2011]',2.621,1.236,5.257,6.388,-7.320,17.532,5.290,6.060,9.593,5.596,4.731,8.431,6.295,4.977,3.351,2.516,5.812,-2.224,7.226,2.802,-0.020,0.000
'[00:00:00.338 01/01/2011]',2.598,0.915,6.040,6.353,-8.186,16.561,4.096,6.710,9.775,6.136,4.807,9.406,6.674,5.897,4.337,3.802,5.858,-2.921,7.621,3.047,-0.017,0.000
'[00:00:00.340 01/01/2011]',2.740,0.732,6.960,6.585,-8.504,15.475,3.551,7.363,10.161,6.643,5.127,10.333,7.184,6.662,5.526,4.777,6.159,-3.163,8.149,3.183,-0.014,0.000
'[00:00:00.342 01/01/2011]',3.089,0.769,7.967,7.099,-8.125,14.508,3.695,7.936,10.695,7.033,5.616,11.085,7.741,7.147,6.786,5.267,6.719,-2.864,8.666,3.209,-0.011,0.000
'[00:00:00.344 01/01/2011]',3.649,1.055,9.012,7.862,-7.032,13.816,4.494,8.327,11.303,7.225,6.150,11.532,8.248,7.228,7.918,5.122,7.498,-2.053,9.003,3.130,-0.006,0.000
'[00:00:00.346 01/01/2011]',4.383,1.563,10.016,8.783,-5.324,13.459,5.861,8.433,11.898,7.139,6.583,11.565,8.598,6.796,8.698,4.230,8.401,-0.897,8.985,2.963,-0.000,0.000
'[00:00:00.348 01/01/2011]',5.225,2.243,10.929,9.724,-3.207,13.395,7.677,8.162,12.393,6.722,6.787,11.102,8.689,5.792,8.915,2.533,9.300,0.320,8.477,2.734,0.007,0.000
'[00:00:00.350 01/01/2011]',6.091,3.010,11.691,10.531,-0.936,13.516,9.778,7.475,12.717,5.955,6.671,10.129,8.458,4.231,8.419,0.085,10.048,1.262,7.408,2.473,0.015,0.000
'[00:00:00.352 01/01/2011]',6.884,3.773,12.245,11.053,1.217,13.676,11.923,6.393,12.823,4.875,6.191,8.713,7.875,2.214,7.149,-2.958,10.509,1.633,5.796,2.222,0.024,0.000
'[00:00:00.354 01/01/2011]',7.504,4.440,12.557,11.185,3.013,13.723,13.813,5.007,12.690,3.567,5.343,6.990,6.962,-0.070,5.155,-6.323,10.588,1.251,3.738,2.017,0.035,0.000
'[00:00:00.356 01/01/2011]',7.860,4.914,12.595,10.876,4.274,13.539,15.108,3.469,12.319,2.158,4.174,5.161,5.768,-2.383,2.591,-9.659,10.245,0.108,1.399,1.889,0.045,0.000
'[00:00:00.358 01/01/2011]',7.886,5.110,12.350,10.143,4.903,13.058,15.522,1.957,11.724,0.786,2.757,3.445,4.356,-4.479,-0.321,-12.587,9.499,-1.634,-1.017,1.857,0.054,0.000
'[00:00:00.360 01/01/2011]',7.551,4.965,11.834,9.059,4.894,12.293,14.901,0.645,10.940,-0.415,1.199,2.054,2.806,-6.146,-3.323,-14.773,8.422,-3.689,-3.304,1.928,0.063,0.000
'[00:00:00.362 01/01/2011]',6.876,4.465,11.087,7.738,4.324,11.343,13.289,-0.322,9.998,-1.349,-0.375,1.147,1.191,-7.252,-6.160,-15.977,7.125,-5.716,-5.273,2.099,0.069,0.000
'[00:00:00.364 01/01/2011]',5.936,3.656,10.167,6.312,3.338,10.386,10.932,-0.849,8.948,-1.963,-1.835,0.826,-0.432,-7.730,-8.613,-16.092,5.736,-7.394,-6.785,2.361,0.072,0.000
'[00:00:00.366 01/01/2011]',4.847,2.649,9.150,4.921,2.127,9.650,8.215,-0.886,7.840,-2.246,-3.075,1.121,-1.984,-7.587,-10.528,-15.148,4.385,-8.480,-7.747,2.708,0.072,0.000
'[00:00:00.368 01/01/2011]',3.758,1.607,8.110,3.682,0.881,9.360,5.555,-0.436,6.743,-2.225,-4.023,2.017,-3.392,-6.869,-11.827,-13.299,3.191,-8.836,-8.121,3.129,0.070,0.000
'[00:00:00.370 01/01/2011]',2.796,0.712,7.113,2.687,-0.257,9.667,3.292,0.454,5.727,-1.947,-4.668,3.448,-4.576,-5.648,-12.496,-10.770,2.244,-8.409,-7.923,3.609,0.064,0.000
'[00:00:00.372 01/01/2011]',2.056,0.110,6.208,1.986,-1.215,10.604,1.615,1.703,4.869,-1.465,-5.057,5.311,-5.465,-4.016,-12.590,-7.832,1.594,-7.239,-7.219,4.120,0.057,0.000
'[00:00:00.374 01/01/2011]',1.569,-0.134,5.429,1.585,-2.012,12.046,0.546,3.190,4.247,-0.841,-5.278,7.464,-5.993,-2.087,-12.205,-4.749,1.245,-5.422,-6.114,4.618,0.048,0.000
'[00:00:00.376 01/01/2011]',1.309,-0.064,4.790,1.439,-2.729,13.739,-0.024,4.764,3.925,-0.125,-5.435,9.733,-6.125,-0.005,-11.457,-1.764,1.157,-3.108,-4.738,5.051,0.039,0.000
'[00:00:00.378 01/01/2011]',1.199,0.178,4.309,1.465,-3.473,15.342,-0.248,6.256,3.954,0.630,-5.614,11.921,-5.860,2.067,-10.467,0.934,1.242,-0.496,-3.224,5.364,0.032,0.000
'[00:00:00.380 01/01/2011]',1.140,0.384,3.995,1.556,-4.326,16.531,-0.274,7.510,4.343,1.379,-5.847,13.837,-5.230,3.960,-9.337,3.223,1.393,2.166,-1.704,5.514,0.025,0.000
'[00:00:00.382 01/01/2011]',1.046,0.357,3.854,1.616,-5.302,17.065,-0.194,8.396,5.046,2.070,-6.120,15.321,-4.295,5.524,-8.143,5.037,1.502,4.604,-0.281,5.486,0.020,0.000
'[00:00:00.384 01/01/2011]',0.855,-0.035,3.870,1.573,-6.347,16.852,-0.046,8.840,5.970,2.649,-6.367,16.274,-3.142,6.655,-6.928,6.391,1.492,6.540,0.968,5.288,0.017,0.000
'[00:00:00.386 01/01/2011]',0.555,-0.804,4.000,1.400,-7.342,15.959,0.168,8.820,6.979,3.057,-6.509,16.657,-1.863,7.316,-5.710,7.350,1.326,7.751,2.008,4.957,0.014,0.000
'[00:00:00.388 01/01/2011]',0.166,-1.855,4.166,1.121,-8.164,14.591,0.451,8.367,7.928,3.241,-6.465,16.496,-0.551,7.524,-4.488,8.030,1.018,8.113,2.831,4.540,0.012,0.000
'[00:00:00.390 01/01/2011]',-0.262,-3.004,4.286,0.784,-8.712,13.015,0.798,7.552,8.698,3.166,-6.189,15.852,0.713,7.357,-3.249,8.549,0.618,7.649,3.466,4.084,0.008,0.000
'[00:00:00.392 01/01/2011]',-0.670,-4.059,4.273,0.456,-8.960,11.503,1.202,6.459,9.230,2.828,-5.665,14.814,1.870,6.918,-1.981,9.044,0.193,6.519,3.963,3.623,0.003,0.000
'[00:00:00.394 01/01/2011]',-1.014,-4.872,4.074,0.180,-8.947,10.268,1.672,5.183,9.527,2.270,-4.921,13.469,2.894,6.320,-0.682,9.609,-0.195,5.005,4.396,3.173,-0.003,0.000
'[00:00:00.396 01/01/2011]',-1.274,-5.388,3.683,-0.019,-8.777,9.432,2.219,3.806,9.649,1.583,-4.017,11.903,3.786,5.663,0.634,10.286,-0.511,3.437,4.836,2.736,-0.012,0.000
'[00:00:00.398 01/01/2011]',-1.456,-5.648,3.131,-0.157,-8.577,9.014,2.864,2.411,9.678,0.879,-3.041,10.196,4.568,5.026,1.937,11.070,-0.750,2.122,5.346,2.306,-0.021,0.000
'[00:00:00.400 01/01/2011]',-1.585,-5.758,2.472,-0.275,-8.472,8.944,3.598,1.056,9.669,0.278,-2.109,8.414,5.266,4.455,3.172,11.902,-0.937,1.272,5.958,1.874,-0.030,0.000
'[00:00:00.402 01/01/2011]',-1.702,-5.842,1.758,-0.436,-8.553,9.077,4.362,-0.222,9.643,-0.137,-1.346,6.610,5.890,3.973,4.280,12.682,-1.125,0.965,6.658,1.428,-0.038,0.000
'[00:00:00.404 01/01/2011]',-1.847,-5.992,1.030,-0.700,-8.869,9.231,5.032,-1.417,9.568,-0.334,-0.869,4.811,6.428,3.557,5.212,13.276,-1.374,1.136,7.396,0.958,-0.045,0.000
'[00:00:00.406 01/01/2011]',-2.050,-6.239,0.289,-1.123,-9.434,9.212,5.431,-2.553,9.388,-0.348,-0.777,3.008,6.841,3.158,5.937,13.556,-1.741,1.608,8.084,0.453,-0.052,0.000
'[00:00:00.408 01/01/2011]',-2.327,-6.574,-0.475,-1.744,-10.228,8.847,5.382,-3.669,9.050,-0.253,-1.107,1.185,7.085,2.718,6.462,13.401,-2.275,2.152,8.632,-0.099,-0.058,0.000
'[00:00:00.410 01/01/2011]',-2.681,-6.955,-1.275,-2.570,-11.217,8.017,4.766,-4.794,8.543,-0.146,-1.823,-0.678,7.123,2.180,6.829,12.732,-2.998,2.543,8.968,-0.703,-0.064,0.000
'[00:00:00.412 01/01/2011]',-3.105,-7.343,-2.109,-3.583,-12.353,6.687,3.562,-5.926,7.890,-0.104,-2.816,-2.551,6.952,1.510,7.105,11.507,-3.905,2.604,9.054,-1.351,-0.070,0.000
'[00:00:00.414 01/01/2011]',-3.582,-7.724,-2.947,-4.729,-13.575,4.914,1.874,-7.017,7.155,-0.176,-3.907,-4.355,6.600,0.717,7.354,9.734,-4.959,2.245,8.890,-2.016,-0.075,0.000
'[00:00:00.416 01/01/2011]',-4.099,-8.112,-3.747,-5.940,-14.805,2.836,-0.100,-7.970,6.396,-0.373,-4.894,-5.953,6.117,-0.155,7.614,7.483,-6.099,1.452,8.510,-2.658,-0.079,0.000
'[00:00:00.418 01/01/2011]',-4.643,-8.528,-4.468,-7.134,-15.955,0.629,-2.117,-8.673,5.652,-0.691,-5.592,-7.182,5.553,-1.038,7.870,4.824,-7.261,0.273,7.954,-3.225,-0.081,0.000
'[00:00:00.420 01/01/2011]',-5.209,-8.984,-5.091,-8.259,-16.939,-1.533,-3.960,-9.036,4.913,-1.124,-5.875,-7.905,4.937,-1.871,8.062,1.886,-8.378,-1.199,7.246,-3.675,-0.081,0.000
'[00:00:00.422 01/01/2011]',-5.791,-9.471,-5.633,-9.291,-17.690,-3.516,-5.484,-9.016,4.134,-1.678,-5.702,-8.054,4.262,-2.617,8.086,-1.214,-9.417,-2.868,6.389,-3.979,-0.080,0.000
'[00:00:00.424 01/01/2011]',-6.385,-9.956,-6.137,-10.238,-18.170,-5.256,-6.642,-8.643,3.249,-2.362,-5.123,-7.660,3.494,-3.277,7.833,-4.335,-10.367,-4.643,5.361,-4.134,-0.078,0.000
'[00:00:00.426 01/01/2011]',-6.984,-10.397,-6.653,-11.138,-18.386,-6.746,-7.453,-8.013,2.217,-3.181,-4.266,-6.840,2.573,-3.886,7.216,-7.330,-11.244,-6.453,4.135,-4.156,-0.075,0.000
'[00:00:00.428 01/01/2011]',-7.567,-10.752,-7.215,-12.021,-18.375,-7.994,-7.985,-7.250,1.030,-4.110,-3.297,-5.770,1.464,-4.489,6.213,-10.053,-12.063,-8.242,2.709,-4.068,-0.072,0.000
'[00:00:00.430 01/01/2011]',-8.102,-10.996,-7.821,-12.897,-18.200,-9.001,-8.296,-6.483,-0.257,-5.088,-2.386,-4.635,0.169,-5.125,4.875,-12.354,-12.830,-9.974,1.116,-3.894,-0.069,0.000
'[00:00:00.432 01/01/2011]',-8.544,-11.111,-8.432,-13.733,-17.915,-9.730,-8.415,-5.831,-1.555,-6.036,-1.678,-3.601,-1.269,-5.815,3.327,-14.103,-13.522,-11.622,-0.564,-3.645,-0.067,0.000
'[00:00:00.434 01/01/2011]',-8.839,-11.094,-8.971,-14.465,-17.555,-10.114,-8.329,-5.378,-2.742,-6.875,-1.268,-2.795,-2.755,-6.551,1.753,-15.205,-14.102,-13.178,-2.218,-3.325,-0.064,0.000
'[00:00:00.436 01/01/2011]',-8.927,-10.922,-9.352,-15.008,-17.125,-10.082,-8.007,-5.196,-3.702,-7.561,-1.187,-2.301,-4.166,-7.309,0.339,-15.605,-14.513,-14.639,-3.706,-2.933,-0.060,0.000
'[00:00:00.438 01/01/2011]',-8.756,-10.565,-9.490,-15.285,-16.605,-9.588,-7.416,-5.330,-4.328,-8.097,-1.411,-2.177,-5.377,-8.053,-0.748,-15.312,-14.710,-16.008,-4.898,-2.471,-0.054,0.000
'[00:00:00.440 01/01/2011]',-8.294,-9.970,-9.324,-15.246,-15.975,-8.645,-6.550,-5.794,-4.542,-8.516,-1.868,-2.439,-6.269,-8.725,-1.395,-14.393,-14.647,-17.277,-5.683,-1.947,-0.046,0.000
'[00:00:00.442 01/01/2011]',-7.530,-9.090,-8.820,-14.866,-15.233,-7.321,-5.440,-6.561,-4.294,-8.857,-2.459,-3.051,-6.759,-9.262,-1.563,-12.954,-14.301,-18.410,-5.984,-1.371,-0.034,0.000
'[00:00:00.444 01/01/2011]',-6.485,-7.887,-7.977,-14.150,-14.404,-5.729,-4.164,-7.539,-3.568,-9.128,-3.085,-3.913,-6.800,-9.561,-1.281,-11.123,-13.652,-19.344,-5.761,-0.745,-0.017,0.000
'[00:00:00.446 01/01/2011]',-5.216,-6.378,-6.829,-13.124,-13.555,-4.001,-2.840,-8.571,-2.392,-9.291,-3.667,-4.857,-6.395,-9.523,-0.634,-9.024,-12.705,-19.993,-5.021,-0.062,0.005,0.000
'[00:00:00.448 01/01/2011]',-3.814,-4.625,-5.459,-11.840,-12.768,-2.261,-1.605,-9.472,-0.849,-9.275,-4.166,-5.672,-5.602,-9.062,0.260,-6.778,-11.487,-20.269,-3.817,0.700,0.035,0.000
'[00:00:00.450 01/01/2011]',-2.396,-2.752,-3.979,-10.382,-12.129,-0.612,-0.605,-10.068,0.913,-9.012,-4.584,-6.147,-4.530,-8.139,1.266,-4.482,-10.061,-20.124,-2.259,1.572,0.072,0.000
'[00:00:00.452 01/01/2011]',-1.096,-0.915,-2.551,-8.865,-11.696,0.862,0.031,-10.247,2.695,-8.473,-4.955,-6.125,-3.321,-6.786,2.267,-2.219,-8.546,-19.571,-0.496,2.573,0.119,0.000
'[00:00:00.454 01/01/2011]',-0.041,0.718,-1.352,-7.437,-11.489,2.093,0.221,-9.998,4.267,-7.710,-5.335,-5.548,-2.129,-5.120,3.174,-0.062,-7.096,-18.699,1.286,3.703,0.174,0.000
'[00:00:00.456 01/01/2011]',0.665,2.010,-0.550,-6.265,-11.494,3.028,-0.058,-9.402,5.412,-6.843,-5.775,-4.456,-1.087,-3.310,3.939,1.934,-5.883,-17.668,2.903,4.933,0.236,0.000
'[00:00:00.458 01/01/2011]',0.968,2.876,-0.266,-5.488,-11.679,3.628,-0.767,-8.605,5.973,-6.034,-6.295,-2.970,-0.273,-1.544,4.569,3.728,-5.062,-16.655,4.203,6.206,0.301,0.000
'[00:00:00.460 01/01/2011]',0.874,3.308,-0.552,-5.189,-11.998,3.898,-1.816,-7.761,5.889,-5.433,-6.883,-1.240,0.298,0.019,5.122,5.304,-4.724,-15.816,5.094,7.448,0.366,0.000
'[00:00:00.462 01/01/2011]',0.447,3.359,-1.355,-5.371,-12.423,3.892,-3.079,-6.982,5.202,-5.123,-7.500,0.597,0.680,1.293,5.693,6.671,-4.875,-15.247,5.563,8.583,0.427,0.000
'[00:00:00.464 01/01/2011]',-0.199,3.132,-2.533,-5.941,-12.938,3.725,-4.425,-6.312,4.046,-5.091,-8.074,2.444,0.976,2.269,6.390,7.872,-5.433,-14.949,5.677,9.549,0.479,0.000
'[00:00:00.466 01/01/2011]',-0.923,2.748,-3.870,-6.733,-13.525,3.566,-5.724,-5.719,2.618,-5.230,-8.540,4.253,1.309,3.023,7.310,8.969,-6.237,-14.847,5.569,10.303,0.518,0.000
'[00:00:00.468 01/01/2011]',-1.582,2.318,-5.127,-7.538,-14.153,3.590,-6.873,-5.124,1.135,-5.369,-8.832,5.999,1.793,3.669,8.519,10.053,-7.098,-14.807,5.402,10.822,0.543,0.000
'[00:00:00.470 01/01/2011]',-2.053,1.930,-6.086,-8.162,-14.762,3.967,-7.780,-4.438,-0.209,-5.320,-8.903,7.659,2.515,4.353,10.030,11.210,-7.823,-14.686,5.354,11.100,0.550,0.000
'[00:00:00.472 01/01/2011]',-2.254,1.646,-6.589,-8.459,-15.268,4.785,-8.368,-3.587,-1.248,-4.928,-8.716,9.202,3.529,5.208,11.803,12.537,-8.269,-14.358,5.574,11.133,0.539,0.000
'[00:00:00.474 01/01/2011]',-2.155,1.509,-6.571,-8.362,-15.573,6.037,-8.567,-2.546,-1.883,-4.099,-8.255,10.572,4.853,6.336,13.759,14.103,-8.349,-13.747,6.173,10.919,0.508,0.000
'[00:00:00.476 01/01/2011]',-1.769,1.542,-6.052,-7.887,-15.587,7.603,-8.324,-1.340,-2.059,-2.831,-7.515,11.707,6.489,7.795,15.790,15.959,-8.054,-12.819,7.219,10.456,0.458,0.000
'[00:00:00.478 01/01/2011]',-1.147,1.761,-5.137,-7.129,-15.261,9.272,-7.598,-0.047,-1.773,-1.206,-6.511,12.542,8.415,9.575,17.784,18.101,-7.444,-11.593,8.715,9.744,0.393,0.000
'[00:00:00.480 01/01/2011]',-0.367,2.160,-3.982,-6.234,-14.590,10.781,-6.382,1.208,-1.073,0.609,-5.272,13.021,10.591,11.600,19.633,20.467,-6.637,-10.101,10.601,8.790,0.315,0.000
'[00:00:00.482 01/01/2011]',0.474,2.702,-2.760,-5.371,-13.629,11.862,-4.714,2.269,-0.054,2.395,-3.862,13.107,12.955,13.711,21.240,22.922,-5.784,-8.390,12.760,7.618,0.231,0.000
'[00:00:00.484 01/01/2011]',1.270,3.297,-1.633,-4.706,-12.460,12.300,-2.668,2.979,1.160,3.906,-2.359,12.786,15.407,15.690,22.523,25.266,-5.053,-6.506,15.015,6.266,0.147,0.000
'[00:00:00.486 01/01/2011]',1.925,3.823,-0.723,-4.364,-11.180,11.978,-0.381,3.206,2.413,4.917,-0.854,12.070,17.821,17.289,23.409,27.252,-4.594,-4.505,17.160,4.792,0.069,0.000
'[00:00:00.488 01/01/2011]',2.364,4.152,-0.095,-4.415,-9.881,10.902,1.979,2.879,3.544,5.274,0.569,11.013,20.043,18.271,23.835,28.629,-4.502,-2.446,18.985,3.266,0.004,0.000
'[00:00:00.490 01/01/2011]',2.557,4.185,0.248,-4.840,-8.612,9.219,4.217,2.025,4.409,4.931,1.843,9.704,21.916,18.458,23.756,29.178,-4.793,-0.394,20.311,1.769,-0.046,0.000
'[00:00:00.492 01/01/2011]',2.530,3.914,0.358,-5.546,-7.400,7.190,6.130,0.769,4.902,3.978,2.937,8.269,23.302,17.793,23.166,28.764,-5.391,1.570,21.025,0.382,-0.080,0.000
'[00:00:00.494 01/01/2011]',2.369,3.425,0.327,-6.362,-6.242,5.167,7.543,-0.678,4.961,2.627,3.848,6.840,24.095,16.308,22.095,27.347,-6.137,3.357,21.082,-0.817,-0.097,0.000
'[00:00:00.496 01/01/2011]',2.196,2.900,0.263,-7.078,-5.125,3.522,8.329,-2.068,4.574,1.173,4.590,5.536,24.244,14.157,20.617,25.006,-6.817,4.874,20.511,-1.764,-0.101,0.000
'[00:00:00.498 01/01/2011]',2.148,2.554,0.250,-7.485,-4.056,2.587,8.429,-3.175,3.774,-0.084,5.168,4.418,23.736,11.561,18.838,21.913,-7.213,6.029,19.391,-2.418,-0.096,0.000
'[00:00:00.500 01/01/2011]',2.319,2.567,0.335,-7.433,-3.067,2.585,7.865,-3.848,2.622,-0.900,5.571,3.486,22.606,8.767,16.881,18.298,-7.171,6.737,17.813,-2.766,-0.086,0.000
'[00:00:00.502 01/01/2011]',2.743,3.019,0.514,-6.859,-2.210,3.566,6.735,-4.047,1.203,-1.150,5.757,2.674,20.926,6.006,14.870,14.433,-6.625,6.935,15.876,-2.825,-0.074,0.000
'[00:00:00.504 01/01/2011]',3.373,3.865,0.746,-5.810,-1.562,5.405,5.217,-3.836,-0.381,-0.842,5.681,1.890,18.805,3.461,12.904,10.573,-5.621,6.594,13.674,-2.646,-0.064,0.000
'[00:00:00.506 01/01/2011]',4.110,4.947,0.974,-4.427,-1.182,7.812,3.527,-3.358,-2.014,-0.107,5.302,1.047,16.393,1.264,11.077,6.960,-4.299,5.743,11.311,-2.299,-0.057,0.000
'[00:00:00.508 01/01/2011]',4.833,6.067,1.153,-2.914,-1.097,10.397,1.904,-2.779,-3.560,0.862,4.629,0.110,13.875,-0.499,9.450,3.805,-2.851,4.482,8.919,-1.869,-0.053,0.000
'[00:00:00.510 01/01/2011]',5.440,7.043,1.280,-1.486,-1.290,12.749,0.566,-2.242,-4.884,1.861,3.712,-0.900,11.459,-1.781,8.089,1.264,-1.479,2.979,6.658,-1.439,-0.054,0.000
'[00:00:00.512 01/01/2011]',5.884,7.762,1.383,-0.330,-1.706,14.504,-0.340,-1.846,-5.862,2.726,2.651,-1.900,9.346,-2.565,7.028,-0.557,-0.354,1.444,4.712,-1.076,-0.058,0.000
'[00:00:00.514 01/01/2011]',6.158,8.193,1.521,0.417,-2.256,15.414,-0.758,-1.629,-6.412,3.361,1.556,-2.791,7.697,-2.866,6.296,-1.621,0.404,0.094,3.248,-0.827,-0.064,0.000
'[00:00:00.516 01/01/2011]',6.287,8.357,1.741,0.677,-2.847,15.367,-0.735,-1.582,-6.511,3.735,0.516,-3.466,6.600,-2.725,5.881,-1.959,0.727,-0.904,2.380,-0.705,-0.070,0.000
'[00:00:00.518 01/01/2011]',6.297,8.277,2.068,0.436,-3.388,14.384,-0.393,-1.662,-6.202,3.880,-0.408,-3.847,6.062,-2.221,5.743,-1.659,0.595,-1.474,2.145,-0.697,-0.076,0.000
'[00:00:00.520 01/01/2011]',6.195,7.949,2.492,-0.270,-3.794,12.616,0.112,-1.811,-5.590,3.864,-1.199,-3.889,6.008,-1.451,5.815,-0.842,0.027,-1.644,2.493,-0.766,-0.079,0.000
'[00:00:00.522 01/01/2011]',5.960,7.332,2.962,-1.362,-3.997,10.294,0.653,-1.965,-4.814,3.767,-1.862,-3.581,6.314,-0.516,6.016,0.367,-0.918,-1.545,3.296,-0.861,-0.080,0.000
'[00:00:00.524 01/01/2011]',5.573,6.375,3.420,-2.712,-3.947,7.707,1.173,-2.065,-4.021,3.672,-2.390,-2.955,6.840,0.499,6.278,1.871,-2.141,-1.363,4.380,-0.926,-0.079,0.000
'[00:00:00.526 01/01/2011]',5.023,5.062,3.795,-4.163,-3.622,5.156,1.694,-2.072,-3.350,3.640,-2.767,-2.085,7.460,1.527,6.547,3.608,-3.507,-1.292,5.563,-0.915,-0.076,0.000
'[00:00:00.528 01/01/2011]',4.329,3.440,4.038,-5.540,-3.044,2.907,2.280,-1.980,-2.908,3.702,-2.961,-1.092,8.082,2.526,6.792,5.539,-4.854,-1.489,6.669,-0.805,-0.073,0.000
'[00:00:00.530 01/01/2011]',3.531,1.644,4.110,-6.671,-2.300,1.168,2.989,-1.825,-2.778,3.841,-2.951,-0.143,8.645,3.464,7.009,7.625,-6.019,-2.043,7.558,-0.597,-0.071,0.000
'[00:00:00.532 01/01/2011]',2.705,-0.143,3.979,-7.418,-1.532,0.053,3.806,-1.676,-3.014,4.010,-2.745,0.580,9.110,4.324,7.208,9.816,-6.859,-2.974,8.132,-0.314,-0.070,0.000
'[00:00:00.534 01/01/2011]',1.916,-1.710,3.634,-7.699,-0.921,-0.412,4.635,-1.612,-3.630,4.133,-2.390,0.927,9.457,5.089,7.411,12.032,-7.285,-4.237,8.350,0.009,-0.070,0.000
'[00:00:00.536 01/01/2011]',1.222,-2.876,3.075,-7.493,-0.650,-0.272,5.307,-1.688,-4.600,4.152,-1.970,0.834,9.679,5.767,7.662,14.186,-7.259,-5.742,8.241,0.339,-0.072,0.000
'[00:00:00.538 01/01/2011]',0.671,-3.511,2.346,-6.840,-0.853,0.399,5.640,-1.888,-5.831,4.052,-1.568,0.361,9.783,6.387,8.019,16.192,-6.801,-7.365,7.912,0.659,-0.074,0.000
'[00:00:00.540 01/01/2011]',0.303,-3.557,1.523,-5.825,-1.590,1.510,5.508,-2.129,-7.171,3.878,-1.246,-0.308,9.800,7.025,8.535,17.996,-5.979,-8.976,7.521,0.972,-0.076,0.000
'[00:00:00.542 01/01/2011]',0.142,-3.028,0.711,-4.566,-2.815,2.975,4.885,-2.266,-8.421,3.725,-1.020,-0.917,9.770,7.756,9.258,19.567,-4.896,-10.447,7.257,1.297,-0.078,0.000
'[00:00:00.544 01/01/2011]',0.196,-2.010,0.018,-3.201,-4.401,4.698,3.858,-2.150,-9.368,3.706,-0.871,-1.209,9.745,8.653,10.174,20.904,-3.675,-11.673,7.278,1.654,-0.079,0.000
'[00:00:00.546 01/01/2011]',0.434,-0.659,-0.478,-1.880,-6.150,6.539,2.598,-1.699,-9.839,3.897,-0.753,-1.022,9.763,9.733,11.219,21.983,-2.464,-12.596,7.666,2.046,-0.079,0.000
'[00:00:00.548 01/01/2011]',0.785,0.804,-0.751,-0.764,-7.843,8.294,1.314,-0.934,-9.733,4.289,-0.632,-0.337,9.838,10.931,12.255,22.773,-1.418,-13.208,8.389,2.448,-0.079,0.000
'[00:00:00.550 01/01/2011]',1.128,2.111,-0.846,-0.010,-9.273,9.705,0.197,-0.002,-9.055,4.775,-0.502,0.698,9.949,12.100,13.097,23.205,-0.694,-13.569,9.302,2.810,-0.079,0.000
'[00:00:00.552 01/01/2011]',1.317,2.984,-0.854,0.246,-10.283,10.477,-0.614,0.850,-7.914,5.156,-0.387,1.815,10.046,13.027,13.545,23.207,-0.430,-13.769,10.179,3.062,-0.079,0.000
'[00:00:00.554 01/01/2011]',1.227,3.187,-0.877,-0.080,-10.774,10.376,-1.034,1.350,-6.481,5.216,-0.332,2.700,10.063,13.490,13.431,22.715,-0.721,-13.915,10.777,3.137,-0.078,0.000
'[00:00:00.556 01/01/2011]',0.777,2.596,-0.997,-1.003,-10.730,9.282,-1.030,1.265,-4.963,4.778,-0.390,3.072,9.929,13.306,12.657,21.703,-1.590,-14.084,10.895,2.992,-0.078,0.000
'[00:00:00.558 01/01/2011]',-0.010,1.247,-1.247,-2.446,-10.195,7.266,-0.614,0.476,-3.544,3.772,-0.597,2.748,9.598,12.374,11.221,20.197,-2.975,-14.307,10.426,2.617,-0.077,0.000
'[00:00:00.560 01/01/2011]',-1.016,-0.659,-1.592,-4.242,-9.273,4.584,0.167,-0.999,-2.356,2.270,-0.960,1.673,9.052,10.711,9.214,18.273,-4.726,-14.543,9.392,2.042,-0.076,0.000
'[00:00:00.562 01/01/2011]',-2.050,-2.783,-1.948,-6.166,-8.099,1.649,1.228,-3.007,-1.462,0.471,-1.462,-0.083,8.321,8.447,6.821,16.047,-6.629,-14.703,7.933,1.328,-0.074,0.000
'[00:00:00.564 01/01/2011]',-2.887,-4.729,-2.208,-7.978,-6.822,-1.066,2.455,-5.307,-0.854,-1.344,-2.052,-2.349,7.482,5.804,4.298,13.664,-8.445,-14.681,6.276,0.550,-0.072,0.000
'[00:00:00.566 01/01/2011]',-3.340,-6.139,-2.285,-9.466,-5.579,-3.131,3.715,-7.612,-0.480,-2.893,-2.655,-4.891,6.656,3.067,1.935,11.273,-9.958,-14.377,4.701,-0.211,-0.070,0.000
'[00:00:00.568 01/01/2011]',-3.302,-6.792,-2.121,-10.500,-4.492,-4.265,4.887,-9.659,-0.252,-3.946,-3.171,-7.449,5.986,0.533,0.033,9.022,-11.022,-13.745,3.474,-0.894,-0.068,0.000
'[00:00:00.570 01/01/2011]',-2.782,-6.655,-1.718,-11.055,-3.657,-4.384,5.894,-11.246,-0.072,-4.388,-3.493,-9.776,5.607,-1.539,-1.165,7.043,-11.586,-12.801,2.800,-1.456,-0.067,0.000
'[00:00:00.572 01/01/2011]',-1.901,-5.888,-1.127,-11.194,-3.151,-3.630,6.705,-12.262,0.144,-4.217,-3.526,-11.668,5.617,-2.964,-1.508,5.434,-11.703,-11.621,2.790,-1.879,-0.067,0.000
'[00:00:00.574 01/01/2011]',-0.860,-4.798,-0.434,-11.053,-3.024,-2.306,7.349,-12.695,0.462,-3.537,-3.206,-12.997,6.046,-3.671,-0.982,4.262,-11.496,-10.321,3.436,-2.169,-0.066,0.000
'[00:00:00.576 01/01/2011]',0.115,-3.751,0.248,-10.781,-3.307,-0.794,7.870,-12.608,0.903,-2.510,-2.529,-13.725,6.838,-3.705,0.295,3.533,-11.127,-9.028,4.614,-2.346,-0.065,0.000
'[00:00:00.578 01/01/2011]',0.820,-3.074,0.828,-10.492,-3.997,0.541,8.291,-12.129,1.455,-1.314,-1.548,-13.897,7.867,-3.215,2.075,3.210,-10.735,-7.845,6.106,-2.442,-0.063,0.000
'[00:00:00.580 01/01/2011]',1.134,-2.971,1.242,-10.244,-5.070,1.451,8.589,-11.393,2.066,-0.102,-0.373,-13.625,8.959,-2.407,4.057,3.210,-10.402,-6.833,7.653,-2.486,-0.060,0.000
'[00:00:00.582 01/01/2011]',1.037,-3.467,1.465,-10.013,-6.471,1.854,8.688,-10.526,2.661,1.031,0.861,-13.051,9.934,-1.501,5.935,3.420,-10.134,-6.007,9.001,-2.498,-0.056,0.000
'[00:00:00.584 01/01/2011]',0.611,-4.414,1.523,-9.718,-8.121,1.846,8.490,-9.601,3.163,2.047,2.011,-12.297,10.642,-0.667,7.476,3.720,-9.864,-5.338,9.954,-2.485,-0.050,0.000
'[00:00:00.586 01/01/2011]',0.026,-5.518,1.482,-9.258,-9.920,1.664,7.927,-8.635,3.521,2.972,2.961,-11.449,10.996,-0.010,8.554,3.995,-9.487,-4.780,10.405,-2.439,-0.044,0.000
'[00:00:00.588 01/01/2011]',-0.510,-6.422,1.431,-8.541,-11.742,1.598,7.002,-7.606,3.719,3.860,3.626,-10.534,10.978,0.452,9.142,4.157,-8.902,-4.277,10.348,-2.341,-0.038,0.000
'[00:00:00.590 01/01/2011]',-0.794,-6.796,1.459,-7.520,-13.446,1.909,5.821,-6.461,3.794,4.784,3.954,-9.544,10.629,0.758,9.291,4.130,-8.041,-3.786,9.852,-2.168,-0.034,0.000
'[00:00:00.592 01/01/2011]',-0.676,-6.413,1.633,-6.227,-14.875,2.745,4.576,-5.166,3.828,5.798,3.930,-8.450,10.035,0.982,9.083,3.867,-6.912,-3.281,9.039,-1.909,-0.031,0.000
'[00:00:00.594 01/01/2011]',-0.102,-5.225,1.996,-4.750,-15.868,4.081,3.508,-3.721,3.925,6.936,3.565,-7.246,9.305,1.191,8.607,3.358,-5.588,-2.746,8.047,-1.569,-0.029,0.000
'[00:00:00.596 01/01/2011]',0.885,-3.361,2.556,-3.245,-16.298,5.714,2.852,-2.172,4.184,8.181,2.910,-5.958,8.560,1.437,7.927,2.611,-4.209,-2.158,7.005,-1.180,-0.028,0.000
'[00:00:00.598 01/01/2011]',2.140,-1.122,3.274,-1.889,-16.088,7.308,2.770,-0.615,4.672,9.472,2.052,-4.647,7.907,1.730,7.089,1.666,-2.942,-1.490,6.008,-0.797,-0.028,0.000
'[00:00:00.600 01/01/2011]',3.455,1.087,4.089,-0.855,-15.249,8.452,3.319,0.827,5.407,10.712,1.107,-3.405,7.435,2.053,6.136,0.602,-1.963,-0.705,5.132,-0.487,-0.027,0.000
'[00:00:00.602 01/01/2011]',4.595,2.856,4.923,-0.285,-13.894,8.763,4.447,2.023,6.338,11.773,0.202,-2.330,7.186,2.364,5.107,-0.490,-1.404,0.223,4.408,-0.318,-0.026,0.000
'[00:00:00.604 01/01/2011]',5.358,3.843,5.669,-0.264,-12.220,7.982,5.989,2.854,7.367,12.529,-0.561,-1.508,7.151,2.598,4.051,-1.499,-1.356,1.282,3.846,-0.335,-0.025,0.000
'[00:00:00.606 01/01/2011]',5.606,3.859,6.241,-0.805,-10.484,6.031,7.720,3.225,8.340,12.861,-1.136,-1.006,7.258,2.682,3.010,-2.316,-1.839,2.392,3.415,-0.552,-0.023,0.000
'[00:00:00.608 01/01/2011]',5.300,2.900,6.569,-1.858,-8.956,3.058,9.376,3.079,9.090,12.687,-1.552,-0.857,7.391,2.553,2.035,-2.838,-2.805,3.404,3.064,-0.936,-0.020,0.000
'[00:00:00.610 01/01/2011]',4.496,1.141,6.594,-3.303,-7.868,-0.595,10.699,2.409,9.455,11.975,-1.897,-1.061,7.411,2.168,1.167,-2.968,-4.157,4.114,2.723,-1.415,-0.017,0.000
'[00:00:00.612 01/01/2011]',3.330,-1.104,6.308,-4.981,-7.377,-4.441,11.478,1.258,9.314,10.747,-2.286,-1.586,7.202,1.535,0.455,-2.618,-5.751,4.313,2.321,-1.892,-0.013,0.000
'[00:00:00.614 01/01/2011]',1.989,-3.455,5.725,-6.706,-7.551,-7.954,11.571,-0.276,8.606,9.085,-2.812,-2.365,6.707,0.727,-0.028,-1.709,-7.415,3.847,1.808,-2.260,-0.010,0.000
'[00:00:00.616 01/01/2011]',0.665,-5.540,4.900,-8.290,-8.361,-10.653,10.934,-2.045,7.336,7.116,-3.504,-3.299,5.946,-0.122,-0.192,-0.172,-8.977,2.666,1.170,-2.432,-0.007,0.000
'[00:00:00.618 01/01/2011]',-0.478,-7.067,3.900,-9.580,-9.700,-12.223,9.614,-3.876,5.585,4.991,-4.317,-4.271,5.016,-0.844,0.061,2.021,-10.279,0.852,0.436,-2.356,-0.004,0.000
'[00:00:00.620 01/01/2011]',-1.340,-7.874,2.799,-10.467,-11.406,-12.561,7.746,-5.594,3.481,2.867,-5.143,-5.161,4.062,-1.277,0.813,4.847,-11.204,-1.401,-0.324,-2.030,-0.001,0.000
'[00:00:00.622 01/01/2011]',-1.893,-7.947,1.654,-10.907,-13.289,-11.808,5.523,-7.056,1.194,0.885,-5.857,-5.868,3.240,-1.312,2.090,8.207,-11.691,-3.828,-1.017,-1.500,0.002,0.000
'[00:00:00.624 01/01/2011]',-2.184,-7.418,0.506,-10.923,-15.168,-10.311,3.156,-8.170,-1.102,-0.839,-6.340,-6.322,2.684,-0.913,3.852,11.937,-11.745,-6.167,-1.555,-0.852,0.004,0.000
'[00:00:00.626 01/01/2011]',-2.311,-6.521,-0.621,-10.601,-16.883,-8.541,0.854,-8.894,-3.235,-2.205,-6.524,-6.489,2.480,-0.131,5.977,15.802,-11.433,-8.197,-1.863,-0.187,0.007,0.000
'[00:00:00.628 01/01/2011]',-2.399,-5.538,-1.707,-10.058,-18.329,-6.983,-1.209,-9.223,-5.044,-3.130,-6.389,-6.362,2.667,0.934,8.292,19.545,-10.861,-9.768,-1.897,0.395,0.010,0.000
'[00:00:00.630 01/01/2011]',-2.558,-4.755,-2.732,-9.408,-19.462,-6.028,-2.889,-9.164,-6.385,-3.528,-5.951,-5.947,3.236,2.163,10.607,22.917,-10.153,-10.801,-1.645,0.820,0.013,0.000
'[00:00:00.632 01/01/2011]',-2.869,-4.394,-3.655,-8.748,-20.302,-5.885,-4.071,-8.717,-7.135,-3.322,-5.259,-5.258,4.158,3.466,12.743,25.711,-9.417,-11.277,-1.118,1.050,0.016,0.000
'[00:00:00.634 01/01/2011]',-3.357,-4.575,-4.419,-8.137,-20.917,-6.556,-4.658,-7.883,-7.198,-2.464,-4.362,-4.307,5.392,4.811,14.577,27.779,-8.732,-11.207,-0.347,1.088,0.021,0.000
'[00:00:00.636 01/01/2011]',-4.002,-5.335,-4.963,-7.604,-21.403,-7.863,-4.571,-6.687,-6.531,-0.971,-3.318,-3.130,6.894,6.177,16.033,29.046,-8.144,-10.648,0.626,0.964,0.025,0.000
'[00:00:00.638 01/01/2011]',-4.750,-6.600,-5.255,-7.165,-21.857,-9.535,-3.766,-5.210,-5.159,1.046,-2.198,-1.811,8.620,7.580,17.091,29.498,-7.691,-9.704,1.747,0.722,0.030,0.000
'[00:00:00.640 01/01/2011]',-5.543,-8.237,-5.301,-6.851,-22.343,-11.296,-2.260,-3.609,-3.195,3.361,-1.089,-0.487,10.501,8.990,17.777,29.178,-7.406,-8.538,2.949,0.405,0.035,0.000
'[00:00:00.642 01/01/2011]',-6.327,-10.073,-5.163,-6.721,-22.880,-12.952,-0.148,-2.122,-0.838,5.654,-0.102,0.650,12.449,10.338,18.116,28.171,-7.349,-7.360,4.151,0.043,0.039,0.000
'[00:00:00.644 01/01/2011]',-7.072,-11.924,-4.961,-6.861,-23.447,-14.419,2.365,-1.024,1.647,7.562,0.638,1.383,14.325,11.507,18.145,26.592,-7.591,-6.403,5.261,-0.350,0.043,0.000
'[00:00:00.646 01/01/2011]',-7.763,-13.608,-4.843,-7.356,-23.991,-15.718,4.991,-0.566,3.960,8.753,1.016,1.524,15.973,12.351,17.891,24.571,-8.208,-5.868,6.179,-0.767,0.046,0.000
'[00:00:00.648 01/01/2011]',-8.396,-14.965,-4.953,-8.259,-24.460,-16.913,7.375,-0.902,5.813,8.997,0.950,0.963,17.205,12.735,17.395,22.253,-9.241,-5.886,6.812,-1.203,0.049,0.000
'[00:00:00.650 01/01/2011]',-8.961,-15.869,-5.395,-9.569,-24.826,-18.062,9.170,-2.043,6.980,8.225,0.406,-0.280,17.855,12.566,16.676,19.772,-10.679,-6.484,7.082,-1.641,0.052,0.000
'[00:00:00.652 01/01/2011]',-9.445,-16.244,-6.203,-11.204,-25.093,-19.175,10.089,-3.855,7.326,6.532,-0.585,-2.067,17.784,11.824,15.773,17.254,-12.438,-7.599,6.944,-2.052,0.056,0.000
'[00:00:00.654 01/01/2011]',-9.836,-16.078,-7.340,-13.033,-25.296,-20.218,9.965,-6.078,6.828,4.152,-1.937,-4.155,16.931,10.556,14.732,14.793,-14.378,-9.110,6.385,-2.394,0.060,0.000
'[00:00:00.656 01/01/2011]',-10.131,-15.441,-8.713,-14.886,-25.477,-21.136,8.784,-8.406,5.569,1.391,-3.530,-6.257,15.309,8.875,13.591,12.454,-16.321,-10.892,5.423,-2.625,0.065,0.000
'[00:00:00.658 01/01/2011]',-10.351,-14.491,-10.185,-16.606,-25.666,-21.907,6.691,-10.546,3.728,-1.433,-5.233,-8.106,13.021,6.930,12.382,10.288,-18.102,-12.843,4.111,-2.714,0.071,0.000
'[00:00:00.660 01/01/2011]',-10.548,-13.454,-11.622,-18.080,-25.861,-22.568,3.947,-12.289,1.537,-4.052,-6.927,-9.515,10.245,4.886,11.114,8.315,-19.600,-14.894,2.517,-2.647,0.077,0.000
'[00:00:00.662 01/01/2011]',-10.792,-12.605,-12.899,-19.254,-26.042,-23.222,0.884,-13.524,-0.741,-6.279,-8.514,-10.400,7.205,2.897,9.781,6.556,-20.748,-17.004,0.711,-2.437,0.085,0.000
'[00:00:00.664 01/01/2011]',-11.171,-12.202,-13.937,-20.133,-26.184,-24.008,-2.168,-14.245,-2.861,-8.000,-9.923,-10.787,4.150,1.095,8.351,5.014,-21.554,-19.108,-1.232,-2.122,0.093,0.000
'[00:00:00.666 01/01/2011]',-11.753,-12.446,-14.691,-20.751,-26.286,-25.044,-4.941,-14.519,-4.621,-9.182,-11.104,-10.779,1.307,-0.433,6.794,3.695,-22.061,-21.101,-3.242,-1.758,0.102,0.000
'[00:00:00.668 01/01/2011]',-12.570,-13.423,-15.149,-21.165,-26.376,-26.385,-7.269,-14.454,-5.889,-9.831,-12.028,-10.517,-1.138,-1.647,5.072,2.581,-22.338,-22.834,-5.248,-1.406,0.111,0.000
'[00:00:00.670 01/01/2011]',-13.594,-15.084,-15.333,-21.409,-26.517,-27.977,-9.099,-14.165,-6.619,-10.000,-12.688,-10.147,-3.077,-2.565,3.168,1.626,-22.440,-24.134,-7.184,-1.122,0.120,0.000
'[00:00:00.672 01/01/2011]',-14.742,-17.231,-15.274,-21.500,-26.755,-29.665,-10.473,-13.759,-6.846,-9.777,-13.106,-9.781,-4.487,-3.263,1.071,0.759,-22.403,-24.865,-8.981,-0.944,0.129,0.000
'[00:00:00.674 01/01/2011]',-15.887,-19.560,-15.029,-21.438,-27.102,-31.227,-11.486,-13.335,-6.677,-9.286,-13.331,-9.499,-5.437,-3.860,-1.200,-0.120,-22.243,-24.979,-10.586,-0.883,0.137,0.000
'[00:00:00.676 01/01/2011]',-16.880,-21.724,-14.655,-21.227,-27.503,-32.422,-12.264,-12.981,-6.258,-8.688,-13.437,-9.348,-6.065,-4.493,-3.609,-1.112,-21.961,-24.541,-11.949,-0.923,0.144,0.000
'[00:00:00.678 01/01/2011]',-17.593,-23.394,-14.229,-20.891,-27.842,-33.062,-12.889,-12.772,-5.745,-8.153,-13.500,-9.358,-6.557,-5.294,-6.095,-2.291,-21.584,-23.731,-13.057,-1.026,0.149,0.000
'[00:00:00.680 01/01/2011]',-17.951,-24.360,-13.822,-20.493,-27.988,-33.064,-13.420,-12.773,-5.285,-7.844,-13.580,-9.551,-7.093,-6.348,-8.574,-3.678,-21.165,-22.813,-13.931,-1.145,0.153,0.000
'[00:00:00.682 01/01/2011]',-17.956,-24.560,-13.523,-20.135,-27.840,-32.466,-13.877,-13.022,-4.984,-7.879,-13.700,-9.941,-7.814,-7.672,-10.946,-5.222,-20.796,-22.068,-14.628,-1.228,0.156,0.000
'[00:00:00.684 01/01/2011]',-17.690,-24.111,-13.406,-19.935,-27.373,-31.432,-14.267,-13.529,-4.914,-8.319,-13.832,-10.538,-8.799,-9.210,-13.106,-6.808,-20.595,-21.743,-15.227,-1.239,0.160,0.000
'[00:00:00.686 01/01/2011]',-17.299,-23.258,-13.528,-20.024,-26.657,-30.211,-14.598,-14.264,-5.107,-9.157,-13.914,-11.334,-10.045,-10.845,-14.957,-8.272,-20.687,-22.000,-15.818,-1.154,0.163,0.000
'[00:00:00.688 01/01/2011]',-16.966,-22.339,-13.927,-20.493,-25.835,-29.080,-14.903,-15.181,-5.562,-10.343,-13.871,-12.297,-11.487,-12.422,-16.428,-9.426,-21.165,-22.899,-16.472,-0.971,0.169,0.000
'[00:00:00.690 01/01/2011]',-16.860,-21.687,-14.602,-21.392,-25.088,-28.290,-15.229,-16.219,-6.261,-11.788,-13.649,-13.372,-13.023,-13.796,-17.471,-10.096,-22.078,-24.402,-17.232,-0.703,0.176,0.000
'[00:00:00.692 01/01/2011]',-17.111,-21.561,-15.537,-22.697,-24.580,-28.018,-15.646,-17.321,-7.160,-13.413,-13.237,-14.482,-14.532,-14.853,-18.081,-10.143,-23.404,-26.392,-18.098,-0.372,0.185,0.000
'[00:00:00.694 01/01/2011]',-17.774,-22.088,-16.682,-24.334,-24.436,-28.330,-16.222,-18.443,-8.207,-15.139,-12.676,-15.534,-15.916,-15.537,-18.280,-9.474,-25.055,-28.704,-19.049,-0.003,0.195,0.000
'[00:00:00.696 01/01/2011]',-18.824,-23.240,-17.988,-26.179,-24.722,-29.179,-17.023,-19.540,-9.341,-16.894,-12.062,-16.425,-17.108,-15.859,-18.114,-8.050,-26.897,-31.151,-20.039,0.383,0.206,0.000
'[00:00:00.698 01/01/2011]',-20.167,-24.845,-19.396,-28.086,-25.461,-30.420,-18.094,-20.575,-10.514,-18.619,-11.508,-17.055,-18.084,-15.874,-17.655,-5.896,-28.776,-33.561,-21.042,0.772,0.217,0.000
'[00:00:00.700 01/01/2011]',-21.649,-26.638,-20.851,-29.911,-26.640,-31.841,-19.468,-21.500,-11.688,-20.246,-11.137,-17.333,-18.860,-15.678,-16.992,-3.105,-30.546,-35.782,-22.031,1.163,0.227,0.000
'[00:00:00.702 01/01/2011]',-23.097,-28.309,-22.290,-31.534,-28.199,-33.214,-21.125,-22.262,-12.853,-21.711,-11.032,-17.203,-19.479,-15.377,-16.227,0.147,-32.088,-37.711,-23.002,1.558,0.236,0.000
'[00:00:00.704 01/01/2011]',-24.342,-29.585,-23.644,-32.873,-30.028,-34.325,-22.997,-22.813,-14.009,-22.954,-11.220,-16.638,-19.978,-15.066,-15.456,3.633,-33.328,-39.280,-23.939,1.961,0.243,0.000
'[00:00:00.706 01/01/2011]',-25.248,-30.275,-24.820,-33.868,-31.946,-35.026,-24.949,-23.118,-15.155,-23.934,-11.661,-15.674,-20.390,-14.805,-14.756,7.078,-34.227,-40.468,-24.799,2.376,0.249,0.000
'[00:00:00.708 01/01/2011]',-25.720,-30.299,-25.707,-34.493,-33.706,-35.243,-26.772,-23.161,-16.259,-24.622,-12.248,-14.390,-20.680,-14.614,-14.166,10.211,-34.768,-41.269,-25.487,2.797,0.253,0.000
'[00:00:00.710 01/01/2011]',-25.709,-29.690,-26.185,-34.737,-35.011,-34.985,-28.219,-22.954,-17.260,-25.009,-12.811,-12.901,-20.769,-14.461,-13.667,12.809,-34.948,-41.678,-25.862,3.206,0.257,0.000
'[00:00:00.712 01/01/2011]',-25.218,-28.556,-26.141,-34.597,-35.580,-34.329,-29.045,-22.516,-18.044,-25.082,-13.164,-11.338,-20.531,-14.270,-13.189,14.738,-34.759,-41.678,-25.764,3.579,0.260,0.000
'[00:00:00.714 01/01/2011]',-24.287,-27.059,-25.497,-34.074,-35.199,-33.396,-29.067,-21.871,-18.483,-24.831,-13.131,-9.812,-19.829,-13.945,-12.627,15.954,-34.196,-41.235,-25.052,3.881,0.262,0.000
'[00:00:00.716 01/01/2011]',-22.976,-25.356,-24.235,-33.176,-33.785,-32.314,-28.212,-21.037,-18.462,-24.238,-12.593,-8.410,-18.554,-13.395,-11.873,16.499,-33.259,-40.296,-23.651,4.084,0.263,0.000
'[00:00:00.718 01/01/2011]',-21.369,-23.567,-22.395,-31.926,-31.391,-31.178,-26.537,-20.023,-17.904,-23.287,-11.522,-7.170,-16.673,-12.565,-10.845,16.464,-31.963,-38.821,-21.588,4.167,0.264,0.000
'[00:00:00.720 01/01/2011]',-19.545,-21.768,-20.081,-30.351,-28.200,-30.034,-24.218,-18.835,-16.800,-21.980,-9.978,-6.097,-14.242,-11.452,-9.518,15.972,-30.331,-36.797,-18.976,4.124,0.264,0.000
'[00:00:00.722 01/01/2011]',-17.573,-19.970,-17.444,-28.475,-24.477,-28.858,-21.499,-17.490,-15.211,-20.350,-8.118,-5.163,-11.411,-10.113,-7.914,15.118,-28.397,-34.260,-16.007,3.972,0.264,0.000
'[00:00:00.724 01/01/2011]',-15.508,-18.145,-14.632,-26.322,-20.507,-27.574,-18.639,-16.013,-13.252,-18.452,-6.144,-4.334,-8.395,-8.648,-6.112,13.993,-26.189,-31.289,-12.895,3.741,0.263,0.000
'[00:00:00.726 01/01/2011]',-13.380,-16.232,-11.793,-23.900,-16.542,-26.081,-15.862,-14.458,-11.068,-16.379,-4.274,-3.583,-5.422,-7.187,-4.221,12.669,-23.725,-28.023,-9.834,3.475,0.262,0.000
'[00:00:00.728 01/01/2011]',-11.216,-14.176,-9.040,-21.223,-12.779,-24.308,-13.326,-12.884,-8.815,-14.228,-2.698,-2.896,-2.707,-5.858,-2.374,11.200,-21.024,-24.633,-6.978,3.212,0.259,0.000
'[00:00:00.730 01/01/2011]',-9.050,-11.951,-6.477,-18.327,-9.353,-22.264,-11.141,-11.378,-6.655,-12.107,-1.542,-2.303,-0.415,-4.781,-0.700,9.629,-18.127,-21.315,-4.429,2.978,0.257,0.000
'[00:00:00.732 01/01/2011]',-6.938,-9.590,-4.199,-15.297,-6.360,-20.051,-9.380,-10.042,-4.744,-10.114,-0.863,-1.870,1.345,-4.059,0.673,7.987,-15.120,-18.261,-2.254,2.775,0.254,0.000
'[00:00:00.734 01/01/2011]',-4.978,-7.193,-2.311,-12.275,-3.884,-17.857,-8.104,-8.979,-3.237,-8.340,-0.644,-1.696,2.515,-3.770,1.635,6.268,-12.143,-15.657,-0.510,2.583,0.250,0.000
'[00:00:00.736 01/01/2011]',-3.286,-4.921,-0.915,-9.450,-2.009,-15.904,-7.383,-8.279,-2.275,-6.854,-0.814,-1.894,3.084,-3.963,2.101,4.447,-9.386,-13.643,0.771,2.369,0.245,0.000
'[00:00:00.738 01/01/2011]',-1.981,-2.953,-0.102,-7.016,-0.807,-14.369,-7.273,-7.998,-1.960,-5.703,-1.281,-2.547,3.082,-4.634,2.042,2.483,-7.042,-12.306,1.569,2.099,0.240,0.000
'[00:00:00.740 01/01/2011]',-1.145,-1.441,0.092,-5.117,-0.327,-13.302,-7.780,-8.127,-2.321,-4.893,-1.948,-3.669,2.568,-5.724,1.482,0.337,-5.257,-11.645,1.889,1.759,0.233,0.000
'[00:00:00.742 01/01/2011]',-0.786,-0.461,-0.284,-3.806,-0.552,-12.599,-8.829,-8.581,-3.291,-4.376,-2.739,-5.170,1.636,-7.108,0.496,-1.981,-4.079,-11.576,1.779,1.363,0.226,0.000
'[00:00:00.744 01/01/2011]',-0.831,0.015,-1.086,-3.020,-1.383,-12.023,-10.243,-9.203,-4.682,-4.063,-3.614,-6.861,0.400,-8.607,-0.791,-4.427,-3.434,-11.922,1.326,0.958,0.217,0.000
'[00:00:00.746 01/01/2011]',-1.124,0.103,-2.086,-2.615,-2.627,-11.280,-11.752,-9.791,-6.225,-3.829,-4.572,-8.483,-1.011,-10.032,-2.252,-6.895,-3.159,-12.457,0.639,0.605,0.207,0.000
'[00:00:00.748 01/01/2011]',-1.475,-0.027,-3.006,-2.392,-4.023,-10.131,-13.020,-10.149,-7.599,-3.551,-5.630,-9.764,-2.482,-11.194,-3.751,-9.254,-3.038,-12.927,-0.175,0.366,0.194,0.000
'[00:00:00.750 01/01/2011]',-1.695,-0.205,-3.583,-2.178,-5.275,-8.492,-13.729,-10.140,-8.505,-3.141,-6.805,-10.503,-3.903,-11.966,-5.196,-11.348,-2.881,-13.113,-1.016,0.277,0.181,0.000
'[00:00:00.752 01/01/2011]',-1.652,-0.315,-3.611,-1.878,-6.113,-6.472,-13.632,-9.718,-8.735,-2.561,-8.088,-10.603,-5.187,-12.290,-6.519,-13.046,-2.577,-12.853,-1.798,0.338,0.166,0.000
'[00:00:00.754 01/01/2011]',-1.289,-0.315,-2.980,-1.472,-6.331,-4.364,-12.616,-8.932,-8.210,-1.841,-9.423,-10.099,-6.256,-12.186,-7.688,-14.258,-2.114,-12.073,-2.442,0.511,0.149,0.000
'[00:00:00.756 01/01/2011]',-0.628,-0.240,-1.682,-1.030,-5.810,-2.538,-10.720,-7.911,-6.986,-1.050,-10.694,-9.131,-7.035,-11.729,-8.709,-14.948,-1.567,-10.767,-2.860,0.728,0.133,0.000
'[00:00:00.758 01/01/2011]',0.254,-0.165,0.207,-0.644,-4.523,-1.343,-8.125,-6.812,-5.227,-0.271,-11.759,-7.887,-7.454,-11.029,-9.601,-15.143,-1.047,-8.991,-2.965,0.911,0.117,0.000
'[00:00:00.760 01/01/2011]',1.252,-0.174,2.546,-0.396,-2.524,-0.992,-5.108,-5.768,-3.159,0.431,-12.468,-6.549,-7.452,-10.199,-10.410,-14.923,-0.650,-6.834,-2.679,0.992,0.101,0.000
'[00:00:00.762 01/01/2011]',2.271,-0.313,5.168,-0.316,0.087,-1.499,-1.983,-4.860,-1.021,1.029,-12.695,-5.249,-6.999,-9.343,-11.191,-14.408,-0.430,-4.402,-1.960,0.934,0.086,0.000
'[00:00:00.764 01/01/2011]',3.231,-0.588,7.870,-0.392,3.161,-2.688,0.957,-4.110,0.978,1.535,-12.372,-4.064,-6.107,-8.541,-11.991,-13.726,-0.375,-1.819,-0.838,0.730,0.072,0.000
'[00:00:00.766 01/01/2011]',4.077,-0.950,10.451,-0.568,6.510,-4.246,3.469,-3.499,2.672,1.977,-11.499,-3.030,-4.859,-7.866,-12.839,-12.991,-0.444,0.773,0.574,0.404,0.059,0.000
'[00:00:00.768 01/01/2011]',4.763,-1.340,12.695,-0.803,9.903,-5.823,5.378,-3.001,3.934,2.365,-10.149,-2.184,-3.393,-7.353,-13.729,-12.289,-0.591,3.205,2.084,0.001,0.047,0.000
'[00:00:00.770 01/01/2011]',5.243,-1.693,14.367,-1.082,13.062,-7.116,6.570,-2.618,4.663,2.673,-8.445,-1.581,-1.898,-7.037,-14.616,-11.657,-0.807,5.289,3.453,-0.434,0.035,0.000
'[00:00:00.772 01/01/2011]',5.456,-1.972,15.259,-1.439,15.672,-7.946,6.980,-2.394,4.781,2.828,-6.556,-1.302,-0.574,-6.943,-15.427,-11.095,-1.133,6.841,4.439,-0.860,0.023,0.000
'[00:00:00.774 01/01/2011]',5.358,-2.171,15.223,-1.948,17.434,-8.281,6.594,-2.404,4.242,2.721,-4.648,-1.440,0.392,-7.073,-16.077,-10.571,-1.638,7.717,4.852,-1.254,0.012,0.000
'[00:00:00.776 01/01/2011]',4.911,-2.312,14.206,-2.673,18.109,-8.214,5.443,-2.720,3.044,2.246,-2.881,-2.054,0.867,-7.424,-16.490,-10.038,-2.393,7.850,4.594,-1.610,0.002,0.000
'[00:00:00.778 01/01/2011]',4.123,-2.422,12.289,-3.654,17.583,-7.933,3.619,-3.385,1.259,1.337,-1.368,-3.137,0.794,-7.960,-16.612,-9.449,-3.434,7.271,3.682,-1.931,-0.007,0.000
'[00:00:00.780 01/01/2011]',3.053,-2.528,9.682,-4.875,15.903,-7.661,1.277,-4.383,-0.976,-0.012,-0.171,-4.601,0.212,-8.622,-16.415,-8.742,-4.737,6.101,2.248,-2.228,-0.015,0.000
'[00:00:00.782 01/01/2011]',1.798,-2.640,6.689,-6.260,13.287,-7.601,-1.376,-5.629,-3.465,-1.738,0.720,-6.276,-0.759,-9.327,-15.889,-7.860,-6.216,4.520,0.502,-2.506,-0.022,0.000
'[00:00:00.784 01/01/2011]',0.483,-2.768,3.663,-7.712,10.091,-7.901,-4.110,-7.002,-5.984,-3.716,1.377,-7.949,-1.937,-9.970,-15.032,-6.733,-7.764,2.727,-1.297,-2.765,-0.028,0.000
'[00:00:00.786 01/01/2011]',-0.770,-2.926,0.923,-9.134,6.742,-8.626,-6.700,-8.346,-8.325,-5.805,1.907,-9.394,-3.106,-10.434,-13.842,-5.297,-9.271,0.900,-2.924,-2.990,-0.034,0.000
'[00:00:00.788 01/01/2011]',-1.876,-3.142,-1.283,-10.455,3.668,-9.747,-8.949,-9.510,-10.320,-7.854,2.435,-10.409,-4.054,-10.608,-12.334,-3.500,-10.670,-0.818,-4.189,-3.161,-0.038,0.000
'[00:00:00.790 01/01/2011]',-2.778,-3.449,-2.822,-11.637,1.235,-11.136,-10.713,-10.352,-11.850,-9.724,3.061,-10.829,-4.618,-10.390,-10.528,-1.324,-11.919,-2.334,-5.009,-3.246,-0.043,0.000
'[00:00:00.792 01/01/2011]',-3.463,-3.883,-3.652,-12.663,-0.299,-12.587,-11.889,-10.747,-12.848,-11.285,3.850,-10.538,-4.702,-9.705,-8.484,1.209,-13.002,-3.574,-5.364,-3.210,-0.046,0.000
'[00:00:00.794 01/01/2011]',-3.930,-4.462,-3.818,-13.506,-0.810,-13.849,-12.413,-10.593,-13.279,-12.430,4.815,-9.480,-4.288,-8.512,-6.283,4.025,-13.893,-4.476,-5.321,-3.022,-0.050,0.000
'[00:00:00.796 01/01/2011]',-4.196,-5.170,-3.410,-14.137,-0.308,-14.690,-12.252,-9.826,-13.148,-13.065,5.934,-7.664,-3.431,-6.814,-4.022,7.020,-14.563,-4.988,-4.968,-2.663,-0.053,0.000
'[00:00:00.798 01/01/2011]',-4.284,-5.979,-2.541,-14.519,1.062,-14.971,-11.425,-8.451,-12.486,-13.136,7.166,-5.192,-2.245,-4.676,-1.808,10.068,-14.969,-5.094,-4.412,-2.139,-0.056,0.000
'[00:00:00.800 01/01/2011]',-4.227,-6.847,-1.362,-14.639,3.039,-14.679,-10.014,-6.558,-11.391,-12.657,8.477,-2.270,-0.874,-2.230,0.271,13.036,-15.099,-4.809,-3.738,-1.489,-0.059,0.000
'[00:00:00.802 01/01/2011]',-4.080,-7.731,-0.041,-14.536,5.265,-13.949,-8.186,-4.349,-10.021,-11.734,9.839,0.798,0.520,0.330,2.158,15.810,-14.990,-4.213,-3.014,-0.786,-0.061,0.000
'[00:00:00.804 01/01/2011]',-3.919,-8.606,1.232,-14.304,7.339,-13.024,-6.195,-2.110,-8.593,-10.559,11.230,3.643,1.789,2.766,3.830,18.275,-14.735,-3.432,-2.280,-0.121,-0.064,0.000
'[00:00:00.806 01/01/2011]',-3.817,-9.439,2.264,-14.061,8.876,-12.171,-4.340,-0.165,-7.360,-9.386,12.633,5.892,2.811,4.835,5.297,20.352,-14.462,-2.611,-1.561,0.406,-0.066,0.000
'[00:00:00.808 01/01/2011]',-3.831,-10.183,2.898,-13.916,9.593,-11.588,-2.920,1.191,-6.556,-8.472,14.004,7.253,3.508,6.324,6.593,21.963,-14.282,-1.875,-0.868,0.719,-0.069,0.000
'[00:00:00.810 01/01/2011]',-3.970,-10.758,3.041,-13.912,9.362,-11.335,-2.156,1.776,-6.342,-8.011,15.276,7.566,3.845,7.116,7.772,23.067,-14.246,-1.296,-0.207,0.776,-0.071,0.000
'[00:00:00.812 01/01/2011]',-4.185,-11.058,2.702,-13.997,8.262,-11.326,-2.149,1.547,-6.770,-8.083,16.355,6.850,3.838,7.188,8.880,23.634,-14.309,-0.876,0.423,0.589,-0.072,0.000
'[00:00:00.814 01/01/2011]',-4.385,-10.979,1.981,-14.036,6.548,-11.362,-2.855,0.622,-7.772,-8.632,17.140,5.277,3.542,6.642,9.960,23.677,-14.337,-0.566,1.024,0.212,-0.073,0.000
'[00:00:00.816 01/01/2011]',-4.458,-10.445,1.066,-13.846,4.604,-11.225,-4.098,-0.764,-9.169,-9.483,17.534,3.120,3.033,5.663,11.029,23.232,-14.150,-0.286,1.599,-0.268,-0.074,0.000
'[00:00:00.818 01/01/2011]',-4.306,-9.427,0.161,-13.250,2.849,-10.748,-5.634,-2.307,-10.721,-10.383,17.479,0.702,2.399,4.498,12.074,22.365,-13.574,0.036,2.151,-0.761,-0.074,0.000
'[00:00:00.820 01/01/2011]',-3.871,-7.969,-0.539,-12.135,1.634,-9.869,-7.195,-3.718,-12.166,-11.066,16.957,-1.691,1.722,3.409,13.058,21.156,-12.495,0.448,2.687,-1.185,-0.073,0.000
'[00:00:00.822 01/01/2011]',-3.147,-6.157,-0.900,-10.469,1.183,-8.645,-8.560,-4.757,-13.272,-11.300,16.006,-3.844,1.074,2.617,13.925,19.695,-10.882,0.983,3.218,-1.489,-0.072,0.000
'[00:00:00.824 01/01/2011]',-2.172,-4.105,-0.864,-8.302,1.553,-7.215,-9.582,-5.273,-13.858,-10.930,14.709,-5.626,0.511,2.285,14.607,18.068,-8.787,1.659,3.766,-1.656,-0.071,0.000
'[00:00:00.826 01/01/2011]',-1.014,-1.926,-0.440,-5.755,2.644,-5.741,-10.196,-5.210,-13.821,-9.901,13.192,-6.981,0.088,2.488,15.040,16.354,-6.321,2.496,4.361,-1.703,-0.070,0.000
'[00:00:00.828 01/01/2011]',0.246,0.276,0.317,-2.972,4.239,-4.373,-10.405,-4.600,-13.143,-8.246,11.595,-7.922,-0.160,3.208,15.163,14.605,-3.622,3.529,5.033,-1.667,-0.068,0.000
'[00:00:00.830 01/01/2011]',1.530,2.409,1.324,-0.114,6.061,-3.220,-10.255,-3.545,-11.886,-6.073,10.054,-8.495,-0.202,4.336,14.924,12.852,-0.834,4.791,5.803,-1.602,-0.067,0.000
'[00:00:00.832 01/01/2011]',2.769,4.381,2.505,2.663,7.832,-2.337,-9.806,-2.195,-10.185,-3.553,8.691,-8.773,-0.033,5.686,14.273,11.088,1.902,6.298,6.656,-1.561,-0.066,0.000
'[00:00:00.834 01/01/2011]',3.906,6.093,3.795,5.222,9.325,-1.725,-9.096,-0.728,-8.214,-0.892,7.584,-8.854,0.326,7.032,13.171,9.274,4.465,8.031,7.543,-1.589,-0.066,0.000
'[00:00:00.836 01/01/2011]',4.906,7.464,5.158,7.447,10.411,-1.351,-8.125,0.677,-6.160,1.694,6.777,-8.833,0.827,8.141,11.595,7.358,6.750,9.935,8.377,-1.713,-0.067,0.000
'[00:00:00.838 01/01/2011]',5.769,8.454,6.569,9.262,11.077,-1.130,-6.858,1.875,-4.184,4.008,6.273,-8.808,1.405,8.823,9.551,5.244,8.686,11.922,9.051,-1.937,-0.069,0.000
'[00:00:00.840 01/01/2011]',6.531,9.088,8.043,10.653,11.430,-0.954,-5.229,2.769,-2.388,5.906,6.051,-8.852,1.995,8.964,7.092,2.863,10.247,13.907,9.467,-2.250,-0.070,0.000
'[00:00:00.842 01/01/2011]',7.262,9.471,9.579,11.666,11.655,-0.699,-3.182,3.337,-0.806,7.316,6.075,-9.009,2.553,8.538,4.315,0.155,11.466,15.822,9.555,-2.621,-0.072,0.000
'[00:00:00.844 01/01/2011]',8.043,9.769,11.187,12.403,11.972,-0.272,-0.704,3.621,0.583,8.252,6.305,-9.281,3.053,7.606,1.340,-2.918,12.424,17.628,9.284,-3.020,-0.074,0.000
'[00:00:00.846 01/01/2011]',8.940,10.150,12.856,12.994,12.558,0.351,2.131,3.714,1.823,8.800,6.695,-9.638,3.481,6.272,-1.718,-6.361,13.230,19.304,8.663,-3.423,-0.075,0.000
'[00:00:00.848 01/01/2011]',9.964,10.739,14.522,13.553,13.488,1.096,5.154,3.731,2.947,9.087,7.191,-10.034,3.827,4.666,-4.785,-10.156,13.980,20.825,7.715,-3.815,-0.075,0.000
'[00:00:00.850 01/01/2011]',11.063,11.561,16.084,14.137,14.721,1.797,8.113,3.763,3.940,9.233,7.727,-10.419,4.055,2.899,-7.833,-14.246,14.718,22.130,6.470,-4.195,-0.073,0.000
'[00:00:00.852 01/01/2011]',12.111,12.537,17.411,14.732,16.099,2.238,10.714,3.856,4.731,9.321,8.224,-10.763,4.118,1.050,-10.876,-18.540,15.424,23.120,4.946,-4.569,-0.071,0.000
'[00:00:00.854 01/01/2011]',12.951,13.502,18.343,15.250,17.400,2.230,12.684,4.003,5.215,9.365,8.598,-11.050,3.946,-0.818,-13.932,-22.887,16.011,23.665,3.149,-4.937,-0.068,0.000
'[00:00:00.856 01/01/2011]',13.428,14.267,18.740,15.566,18.410,1.683,13.821,4.147,5.274,9.314,8.779,-11.279,3.496,-2.658,-16.979,-27.067,16.360,23.639,1.106,-5.286,-0.064,0.000
'[00:00:00.858 01/01/2011]',13.441,14.683,18.507,15.568,18.977,0.653,14.044,4.221,4.823,9.085,8.722,-11.446,2.756,-4.408,-19.928,-30.805,16.367,22.965,-1.129,-5.589,-0.061,0.000
'[00:00:00.860 01/01/2011]',12.962,14.672,17.635,15.204,19.051,-0.667,13.393,4.172,3.830,8.596,8.430,-11.522,1.779,-5.983,-22.615,-33.788,15.986,21.659,-3.467,-5.803,-0.058,0.000
'[00:00:00.862 01/01/2011]',12.048,14.253,16.181,14.494,18.678,-2.006,12.020,3.988,2.347,7.807,7.939,-11.453,0.649,-7.274,-24.834,-35.734,15.248,19.824,-5.772,-5.884,-0.055,0.000
'[00:00:00.864 01/01/2011]',10.823,13.511,14.310,13.543,17.989,-3.096,10.157,3.719,0.489,6.738,7.335,-11.155,-0.510,-8.172,-26.384,-36.416,14.257,17.649,-7.882,-5.794,-0.053,0.000
'[00:00:00.866 01/01/2011]',9.442,12.574,12.220,12.500,17.151,-3.761,8.070,3.457,-1.561,5.480,6.719,-10.543,-1.577,-8.581,-27.116,-35.726,13.165,15.368,-9.631,-5.512,-0.051,0.000
'[00:00:00.868 01/01/2011]',8.067,11.580,10.152,11.520,16.329,-3.959,6.028,3.317,-3.589,4.166,6.210,-9.537,-2.447,-8.431,-26.961,-33.705,12.128,13.213,-10.869,-5.047,-0.050,0.000
'[00:00:00.870 01/01/2011]',6.838,10.648,8.324,10.725,15.665,-3.775,4.263,3.405,-5.376,2.946,5.926,-8.099,-3.039,-7.711,-25.923,-30.487,11.272,11.370,-11.477,-4.428,-0.049,0.000
'[00:00:00.872 01/01/2011]',5.858,9.886,6.888,10.184,15.238,-3.368,2.955,3.788,-6.727,1.947,5.959,-6.238,-3.286,-6.435,-24.073,-26.303,10.668,9.966,-11.373,-3.705,-0.048,0.000
'[00:00:00.874 01/01/2011]',5.177,9.368,5.912,9.899,15.063,-2.912,2.207,4.476,-7.502,1.254,6.365,-4.016,-3.132,-4.666,-21.516,-21.406,10.327,9.044,-10.535,-2.936,-0.048,0.000
'[00:00:00.876 01/01/2011]',4.802,9.134,5.362,9.815,15.070,-2.532,2.030,5.408,-7.649,0.897,7.148,-1.538,-2.523,-2.507,-18.354,-16.029,10.201,8.583,-8.987,-2.181,-0.047,0.000
'[00:00:00.878 01/01/2011]',4.681,9.176,5.107,9.836,15.122,-2.291,2.347,6.474,-7.218,0.848,8.249,1.065,-1.428,-0.081,-14.708,-10.368,10.197,8.499,-6.833,-1.491,-0.046,0.000
'[00:00:00.880 01/01/2011]',4.708,9.408,4.951,9.835,15.030,-2.202,3.011,7.529,-6.342,1.027,9.556,3.646,0.157,2.465,-10.688,-4.564,10.190,8.668,-4.237,-0.907,-0.044,0.000
'[00:00:00.882 01/01/2011]',4.739,9.676,4.682,9.662,14.589,-2.278,3.848,8.413,-5.227,1.328,10.918,6.063,2.179,4.981,-6.416,1.277,10.031,8.944,-1.424,-0.456,-0.043,0.000
'[00:00:00.884 01/01/2011]',4.609,9.763,4.118,9.169,13.643,-2.553,4.695,8.976,-4.093,1.622,12.185,8.178,4.533,7.328,-2.011,7.068,9.570,9.169,1.367,-0.157,-0.041,0.000
'[00:00:00.886 01/01/2011]',4.185,9.447,3.139,8.223,12.135,-3.098,5.443,9.116,-3.131,1.785,13.249,9.879,7.078,9.403,2.413,12.732,8.678,9.211,3.924,-0.011,-0.039,0.000
'[00:00:00.888 01/01/2011]',3.375,8.542,1.730,6.745,10.141,-3.993,6.062,8.774,-2.465,1.718,14.061,11.071,9.654,11.143,6.768,18.176,7.272,8.976,6.098,-0.012,-0.038,0.000
'[00:00:00.890 01/01/2011]',2.179,6.972,-0.018,4.733,7.868,-5.285,6.582,7.943,-2.133,1.359,14.652,11.692,12.119,12.544,11.000,23.335,5.353,8.436,7.847,-0.140,-0.037,0.000
'[00:00:00.892 01/01/2011]',0.679,4.787,-1.937,2.285,5.618,-6.955,7.062,6.702,-2.088,0.703,15.113,11.731,14.363,13.646,15.084,28.119,3.017,7.633,9.221,-0.366,-0.036,0.000
'[00:00:00.894 01/01/2011]',-0.968,2.182,-3.808,-0.405,3.722,-8.902,7.530,5.151,-2.230,-0.206,15.566,11.214,16.313,14.513,19.004,32.469,0.457,6.662,10.334,-0.653,-0.035,0.000
'[00:00:00.896 01/01/2011]',-2.571,-0.569,-5.406,-3.078,2.452,-10.971,7.960,3.440,-2.445,-1.282,16.110,10.209,17.922,15.207,22.729,36.324,-2.074,5.656,11.318,-0.960,-0.034,0.000
'[00:00:00.898 01/01/2011]',-3.944,-3.160,-6.546,-5.470,1.961,-12.979,8.251,1.713,-2.632,-2.420,16.789,8.823,19.143,15.769,26.192,39.644,-4.316,4.751,12.268,-1.251,-0.034,0.000
'[00:00:00.900 01/01/2011]',-4.957,-5.339,-7.121,-7.363,2.252,-14.778,8.254,0.095,-2.733,-3.512,17.560,7.179,19.927,16.210,29.278,42.392,-6.061,4.056,13.211,-1.498,-0.033,0.000
'[00:00:00.902 01/01/2011]',-5.543,-6.940,-7.110,-8.636,3.185,-16.261,7.819,-1.320,-2.726,-4.467,18.315,5.402,20.223,16.505,31.860,44.538,-7.194,3.639,14.109,-1.681,-0.032,0.000
'[00:00:00.904 01/01/2011]',-5.715,-7.922,-6.584,-9.274,4.519,-17.373,6.851,-2.480,-2.627,-5.213,18.892,3.612,20.006,16.631,33.812,46.077,-7.706,3.521,14.883,-1.791,-0.031,0.000
'[00:00:00.906 01/01/2011]',-5.535,-8.324,-5.661,-9.346,5.974,-18.072,5.350,-3.362,-2.458,-5.686,19.126,1.916,19.293,16.590,35.067,47.024,-7.672,3.690,15.461,-1.826,-0.030,0.000
'[00:00:00.908 01/01/2011]',-5.086,-8.237,-4.503,-8.954,7.283,-18.311,3.420,-3.952,-2.230,-5.830,18.892,0.402,18.170,16.414,35.625,47.419,-7.201,4.133,15.802,-1.791,-0.030,0.000
'[00:00:00.910 01/01/2011]',-4.445,-7.744,-3.251,-8.188,8.243,-18.030,1.250,-4.229,-1.926,-5.580,18.141,-0.846,16.797,16.175,35.561,47.316,-6.384,4.832,15.936,-1.690,-0.030,0.000
'[00:00:00.912 01/01/2011]',-3.659,-6.898,-2.017,-7.084,8.744,-17.160,-0.923,-4.170,-1.501,-4.872,16.908,-1.775,15.356,15.976,34.995,46.767,-5.261,5.782,15.933,-1.538,-0.030,0.000
'[00:00:00.914 01/01/2011]',-2.747,-5.719,-0.866,-5.627,8.775,-15.686,-2.858,-3.748,-0.879,-3.651,15.319,-2.355,14.048,15.902,34.068,45.797,-3.824,6.990,15.896,-1.354,-0.031,0.000
'[00:00:00.916 01/01/2011]',-1.715,-4.214,0.192,-3.786,8.422,-13.678,-4.343,-2.951,0.029,-1.908,13.571,-2.604,13.031,16.000,32.890,44.388,-2.043,8.461,15.920,-1.174,-0.033,0.000
'[00:00:00.918 01/01/2011]',-0.568,-2.418,1.181,-1.554,7.854,-11.318,-5.224,-1.811,1.309,0.311,11.897,-2.602,12.402,16.249,31.541,42.495,0.099,10.184,16.071,-1.046,-0.035,0.000
'[00:00:00.920 01/01/2011]',0.665,-0.421,2.152,1.013,7.276,-8.877,-5.413,-0.414,3.010,2.888,10.541,-2.480,12.181,16.569,30.048,40.039,2.550,12.132,16.370,-1.024,-0.037,0.000
'[00:00:00.922 01/01/2011]',1.936,1.631,3.156,3.773,6.908,-6.649,-4.904,1.099,5.130,5.638,9.711,-2.403,12.313,16.811,28.408,36.953,5.192,14.246,16.796,-1.159,-0.039,0.000
'[00:00:00.924 01/01/2011]',3.185,3.561,4.238,6.533,6.925,-4.875,-3.773,2.550,7.597,8.320,9.534,-2.549,12.698,16.811,26.603,33.198,7.844,16.435,17.290,-1.485,-0.041,0.000
'[00:00:00.926 01/01/2011]',4.354,5.209,5.429,9.078,7.433,-3.670,-2.173,3.754,10.275,10.691,10.035,-3.056,13.198,16.418,24.598,28.801,10.310,18.583,17.774,-2.000,-0.043,0.000
'[00:00:00.928 01/01/2011]',5.412,6.475,6.750,11.235,8.450,-2.986,-0.321,4.560,12.983,12.532,11.112,-4.001,13.676,15.525,22.366,23.849,12.428,20.562,18.157,-2.666,-0.044,0.000
'[00:00:00.930 01/01/2011]',6.364,7.363,8.215,12.911,9.910,-2.633,1.534,4.877,15.531,13.702,12.570,-5.368,13.991,14.098,19.876,18.490,14.110,22.252,18.359,-3.412,-0.046,0.000
'[00:00:00.932 01/01/2011]',7.252,7.969,9.827,14.116,11.703,-2.344,3.159,4.717,17.771,14.159,14.155,-7.053,14.045,12.185,17.113,12.909,15.355,23.575,18.319,-4.149,-0.046,0.000
'[00:00:00.934 01/01/2011]',8.155,8.469,11.599,14.952,13.688,-1.856,4.394,4.169,19.632,13.990,15.617,-8.888,13.787,9.908,14.083,7.303,16.247,24.520,18.009,-4.790,-0.047,0.000
'[00:00:00.936 01/01/2011]',9.147,9.055,13.526,15.574,15.737,-0.984,5.176,3.417,21.130,13.380,16.767,-10.667,13.228,7.450,10.821,1.854,16.922,25.151,17.453,-5.270,-0.046,0.000
'[00:00:00.938 01/01/2011]',10.294,9.895,15.588,16.160,17.747,0.342,5.562,2.675,22.358,12.587,17.515,-12.187,12.442,5.015,7.402,-3.298,17.536,25.599,16.707,-5.564,-0.045,0.000
'[00:00:00.940 01/01/2011]',11.613,11.083,17.735,16.854,19.640,2.059,5.700,2.159,23.443,11.889,17.880,-13.293,11.542,2.797,3.924,-8.075,18.225,26.020,15.861,-5.683,-0.044,0.000
'[00:00:00.942 01/01/2011]',13.071,12.618,19.887,17.751,21.353,4.014,5.780,2.028,24.487,11.514,17.948,-13.893,10.660,0.935,0.492,-12.457,19.082,26.543,14.992,-5.671,-0.043,0.000
'[00:00:00.944 01/01/2011]',14.572,14.386,21.909,18.868,22.837,5.986,5.974,2.361,25.532,11.602,17.840,-13.983,9.904,-0.512,-2.800,-16.477,20.134,27.212,14.138,-5.589,-0.042,0.000
'[00:00:00.946 01/01/2011]',15.967,16.188,23.629,20.138,24.028,7.726,6.382,3.123,26.521,12.170,17.656,-13.634,9.325,-1.580,-5.889,-20.197,21.330,27.965,13.279,-5.502,-0.042,0.000
'[00:00:00.948 01/01/2011]',17.068,17.755,24.858,21.411,24.870,8.986,6.999,4.179,27.321,13.095,17.446,-12.990,8.910,-2.385,-8.757,-23.674,22.535,28.629,12.330,-5.464,-0.042,0.000
'[00:00:00.950 01/01/2011]',17.683,18.795,25.421,22.472,25.313,9.533,7.732,5.312,27.753,14.170,17.209,-12.234,8.577,-3.098,-11.400,-26.942,23.544,28.967,11.163,-5.516,-0.042,0.000
'[00:00:00.952 01/01/2011]',17.642,19.034,25.175,23.050,25.328,9.187,8.424,6.272,27.641,15.104,16.906,-11.549,8.208,-3.906,-13.836,-29.985,24.095,28.730,9.653,-5.677,-0.043,0.000
'[00:00:00.954 01/01/2011]',16.835,18.277,24.056,22.883,24.927,7.838,8.907,6.822,26.866,15.612,16.488,-11.093,7.669,-4.958,-16.059,-32.741,23.928,27.724,7.715,-5.948,-0.044,0.000
'[00:00:00.956 01/01/2011]',15.242,16.448,22.080,21.772,24.163,5.486,9.046,6.789,25.386,15.447,15.913,-10.954,6.851,-6.334,-18.048,-35.102,22.826,25.857,5.351,-6.305,-0.045,0.000
'[00:00:00.958 01/01/2011]',12.943,13.630,19.366,19.621,23.129,2.255,8.773,6.100,23.248,14.458,15.168,-11.130,5.695,-8.015,-19.767,-36.943,20.691,23.151,2.652,-6.707,-0.046,0.000
'[00:00:00.960 01/01/2011]',10.115,10.069,16.112,16.503,21.949,-1.605,8.086,4.810,20.576,12.627,14.255,-11.534,4.193,-9.893,-21.161,-38.130,17.580,19.744,-0.207,-7.095,-0.048,0.000
'[00:00:00.962 01/01/2011]',7.015,6.148,12.552,12.653,20.747,-5.739,7.036,3.079,17.539,10.072,13.200,-12.007,2.402,-11.777,-22.187,-38.545,13.723,15.858,-3.001,-7.400,-0.050,0.000
'[00:00:00.964 01/01/2011]',3.924,2.321,8.935,8.446,19.618,-9.736,5.702,1.156,14.335,7.038,12.034,-12.361,0.435,-13.440,-22.799,-38.102,9.486,11.768,-5.507,-7.552,-0.052,0.000
'[00:00:00.966 01/01/2011]',1.120,-0.959,5.482,4.328,18.610,-13.193,4.159,-0.675,11.163,3.869,10.796,-12.418,-1.560,-14.650,-22.969,-36.738,5.311,7.762,-7.529,-7.500,-0.054,0.000
'[00:00:00.968 01/01/2011]',-1.180,-3.337,2.369,0.729,17.705,-15.781,2.483,-2.149,8.214,0.943,9.538,-12.045,-3.417,-15.214,-22.659,-34.432,1.630,4.111,-8.935,-7.214,-0.056,0.000
'[00:00:00.970 01/01/2011]',-2.849,-4.621,-0.309,-2.017,16.839,-17.283,0.736,-3.054,5.634,-1.391,8.324,-11.169,-4.967,-15.011,-21.817,-31.197,-1.221,1.035,-9.655,-6.696,-0.057,0.000
'[00:00:00.972 01/01/2011]',-3.866,-4.809,-2.530,-3.748,15.916,-17.646,-1.013,-3.275,3.521,-2.874,7.225,-9.786,-6.074,-13.999,-20.387,-27.075,-3.071,-1.321,-9.687,-5.976,-0.057,0.000
'[00:00:00.974 01/01/2011]',-4.318,-4.099,-4.335,-4.494,14.849,-16.968,-2.705,-2.792,1.902,-3.380,6.305,-7.943,-6.648,-12.217,-18.306,-22.145,-3.935,-2.902,-9.076,-5.103,-0.057,0.000
'[00:00:00.976 01/01/2011]',-4.373,-2.832,-5.827,-4.465,13.573,-15.501,-4.278,-1.684,0.728,-2.939,5.604,-5.705,-6.661,-9.764,-15.541,-16.507,-4.006,-3.752,-7.900,-4.137,-0.057,0.000
'[00:00:00.978 01/01/2011]',-4.267,-1.432,-7.141,-4.000,12.074,-13.607,-5.690,-0.099,-0.117,-1.713,5.129,-3.161,-6.148,-6.774,-12.104,-10.281,-3.608,-4.014,-6.245,-3.137,-0.056,0.000
'[00:00:00.980 01/01/2011]',-4.238,-0.333,-8.422,-3.490,10.381,-11.717,-6.928,1.771,-0.784,0.033,4.835,-0.394,-5.197,-3.397,-8.082,-3.598,-3.115,-3.896,-4.208,-2.151,-0.055,0.000
'[00:00:00.982 01/01/2011]',-4.511,0.106,-9.794,-3.305,8.576,-10.251,-8.014,3.718,-1.417,1.998,4.652,2.518,-3.928,0.220,-3.629,3.400,-2.889,-3.627,-1.882,-1.218,-0.053,0.000
'[00:00:00.984 01/01/2011]',-5.235,-0.352,-11.322,-3.717,6.753,-9.574,-8.989,5.557,-2.120,3.890,4.505,5.492,-2.472,3.944,1.049,10.573,-3.203,-3.412,0.638,-0.368,-0.052,0.000
'[00:00:00.986 01/01/2011]',-6.466,-1.785,-13.007,-4.863,5.038,-9.920,-9.893,7.141,-2.915,5.475,4.336,8.436,-0.948,7.647,5.730,17.763,-4.207,-3.375,3.265,0.378,-0.049,0.000
'[00:00:00.988 01/01/2011]',-8.149,-4.105,-14.763,-6.717,3.559,-11.370,-10.742,8.374,-3.758,6.602,4.140,11.255,0.551,11.213,10.216,24.834,-5.894,-3.540,5.912,1.002,-0.047,0.000
'[00:00:00.990 01/01/2011]',-10.125,-7.067,-16.432,-9.117,2.428,-13.818,-11.517,9.213,-4.549,7.211,3.958,13.837,1.967,14.523,14.365,31.622,-8.129,-3.829,8.493,1.486,-0.045,0.000
'[00:00:00.992 01/01/2011]',-12.157,-10.320,-17.830,-11.794,1.724,-17.012,-12.173,9.646,-5.173,7.316,3.871,16.047,3.273,17.456,18.103,37.975,-10.662,-4.111,10.920,1.816,-0.043,0.000
'[00:00:00.994 01/01/2011]',-13.986,-13.469,-18.788,-14.428,1.464,-20.583,-12.668,9.677,-5.554,6.986,3.960,17.736,4.451,19.889,21.411,43.726,-13.195,-4.242,13.103,1.981,-0.042,0.000
'[00:00:00.996 01/01/2011]',-15.377,-16.125,-19.189,-16.713,1.578,-24.115,-12.990,9.312,-5.680,6.310,4.260,18.745,5.491,21.692,24.290,48.703,-15.436,-4.138,14.944,1.978,-0.042,0.000
'[00:00:00.998 01/01/2011]',-16.163,-17.995,-19.008,-18.404,1.920,-27.207,-13.184,8.528,-5.610,5.371,4.737,18.914,6.362,22.750,26.725,52.713,-17.138,-3.821,16.341,1.813,-0.043,0.000
'[00:00:01.000 01/01/2011]',-16.278,-18.897,-18.300,-19.353,2.293,-29.542,-13.320,7.302,-5.461,4.244,5.274,18.128,7.013,22.963,28.668,55.568,-18.145,-3.396,17.201,1.505,-0.046,0.384
'[00:00:01.002 01/01/2011]',-15.752,-18.796,-17.196,-19.516,2.515,-30.914,-13.488,5.627,-5.371,2.988,5.706,16.361,7.381,22.284,30.024,57.107,-18.397,-3.031,17.448,1.083,-0.049,0.384
'[00:00:01.004 01/01/2011]',-14.679,-17.777,-15.844,-18.942,2.474,-31.248,-13.751,3.547,-5.443,1.660,5.849,13.680,7.401,20.724,30.677,57.222,-17.932,-2.895,17.057,0.585,-0.053,0.384
'[00:00:01.006 01/01/2011]',-13.198,-16.006,-14.392,-17.756,2.182,-30.593,-14.115,1.163,-5.724,0.325,5.569,10.288,7.025,18.374,30.513,55.883,-16.853,-3.089,16.049,0.052,-0.056,0.384
'[00:00:01.008 01/01/2011]',-11.460,-13.698,-12.951,-16.121,1.776,-29.097,-14.534,-1.353,-6.187,-0.934,4.803,6.474,6.239,15.381,29.451,53.135,-15.313,-3.610,14.507,-0.477,-0.060,0.384
'[00:00:01.010 01/01/2011]',-9.602,-11.060,-11.599,-14.211,1.468,-26.989,-14.943,-3.789,-6.756,-2.033,3.583,2.570,5.063,11.946,27.449,49.098,-13.478,-4.355,12.553,-0.972,-0.064,0.384
'[00:00:01.012 01/01/2011]',-7.747,-8.299,-10.390,-12.195,1.482,-24.527,-15.290,-5.941,-7.324,-2.888,2.007,-1.121,3.539,8.277,24.513,43.926,-11.513,-5.150,10.321,-1.422,-0.067,0.384
'[00:00:01.014 01/01/2011]',-6.003,-5.577,-9.357,-10.215,1.983,-21.976,-15.566,-7.656,-7.799,-3.445,0.206,-4.379,1.736,4.568,20.689,37.788,-9.564,-5.810,7.931,-1.831,-0.070,0.384
'[00:00:01.016 01/01/2011]',-4.460,-3.039,-8.531,-8.380,3.019,-19.565,-15.806,-8.860,-8.106,-3.688,-1.686,-7.114,-0.270,0.970,16.074,30.842,-7.737,-6.177,5.477,-2.218,-0.073,0.384
'[00:00:01.018 01/01/2011]',-3.171,-0.787,-7.908,-6.746,4.542,-17.452,-16.044,-9.567,-8.207,-3.639,-3.550,-9.339,-2.376,-2.412,10.850,23.267,-6.097,-6.162,3.021,-2.609,-0.074,0.157
'[00:00:01.020 01/01/2011]',-2.145,1.119,-7.445,-5.321,6.434,-15.697,-16.275,-9.846,-8.059,-3.342,-5.276,-11.154,-4.466,-5.512,5.247,15.262,-4.660,-5.734,0.620,-3.025,-0.074,0.157
'[00:00:01.022 01/01/2011]',-1.332,2.673,-7.052,-4.060,8.577,-14.255,-16.419,-9.798,-7.626,-2.854,-6.754,-12.662,-6.395,-8.284,-0.391,7.085,-3.388,-4.903,-1.661,-3.474,-0.074,0.157
'[00:00:01.024 01/01/2011]',-0.630,3.927,-6.594,-2.896,10.887,-13.009,-16.302,-9.509,-6.858,-2.232,-7.863,-13.942,-8.013,-10.685,-5.671,-0.952,-2.223,-3.716,-3.736,-3.948,-0.072,0.157
'[00:00:01.026 01/01/2011]',0.088,4.963,-5.917,-1.757,13.326,-11.814,-15.714,-9.046,-5.722,-1.532,-8.477,-15.011,-9.181,-12.680,-10.189,-8.484,-1.100,-2.228,-5.496,-4.422,-0.071,0.157
'[00:00:01.028 01/01/2011]',0.935,5.864,-4.900,-0.611,15.881,-10.570,-14.467,-8.443,-4.227,-0.805,-8.504,-15.832,-9.805,-14.222,-13.602,-15.155,0.011,-0.511,-6.836,-4.864,-0.069,0.157
'[00:00:01.030 01/01/2011]',1.970,6.675,-3.473,0.528,18.536,-9.261,-12.464,-7.716,-2.451,-0.113,-7.916,-16.324,-9.854,-15.276,-15.698,-20.651,1.098,1.337,-7.672,-5.237,-0.069,0.157
'[00:00:01.032 01/01/2011]',3.169,7.382,-1.669,1.583,21.227,-7.973,-9.747,-6.879,-0.538,0.498,-6.768,-16.408,-9.371,-15.807,-16.433,-24.749,2.095,3.202,-7.965,-5.511,-0.069,0.157
'[00:00:01.034 01/01/2011]',4.437,7.898,0.409,2.456,23.847,-6.856,-6.485,-5.938,1.318,0.995,-5.190,-16.011,-8.445,-15.795,-15.919,-27.334,2.918,4.969,-7.728,-5.664,-0.071,0.157
'[00:00:01.036 01/01/2011]',5.624,8.118,2.599,3.059,26.258,-6.058,-2.955,-4.891,2.920,1.382,-3.365,-15.097,-7.187,-15.233,-14.393,-28.404,3.492,6.540,-7.014,-5.684,-0.073,0.000
'[00:00:01.038 01/01/2011]',6.594,7.947,4.718,3.360,28.326,-5.648,0.539,-3.724,4.118,1.704,-1.456,-13.654,-5.706,-14.133,-12.157,-28.052,3.790,7.875,-5.912,-5.569,-0.075,0.000
'[00:00:01.040 01/01/2011]',7.249,7.380,6.599,3.400,29.938,-5.570,3.717,-2.413,4.841,2.037,0.414,-11.711,-4.087,-12.537,-9.507,-26.460,3.857,8.994,-4.528,-5.326,-0.077,0.000
'[00:00:01.042 01/01/2011]',7.575,6.510,8.125,3.290,31.027,-5.648,6.365,-0.936,5.100,2.457,2.200,-9.346,-2.396,-10.536,-6.713,-23.892,3.798,9.975,-2.971,-4.973,-0.079,0.000
'[00:00:01.044 01/01/2011]',7.624,5.534,9.204,3.177,31.557,-5.633,8.354,0.702,4.972,3.018,3.911,-6.694,-0.698,-8.266,-3.987,-20.684,3.742,10.923,-1.367,-4.540,-0.080,0.000
'[00:00:01.046 01/01/2011]',7.498,4.701,9.799,3.203,31.514,-5.281,9.640,2.456,4.549,3.716,5.577,-3.942,0.930,-5.911,-1.504,-17.216,3.823,11.909,0.165,-4.064,-0.080,0.000
'[00:00:01.048 01/01/2011]',7.303,4.246,9.901,3.453,30.888,-4.436,10.243,4.234,3.909,4.488,7.207,-1.300,2.391,-3.669,0.588,-13.893,4.115,12.946,1.506,-3.590,-0.080,0.000
'[00:00:01.050 01/01/2011]',7.112,4.319,9.513,3.945,29.679,-3.070,10.235,5.910,3.084,5.232,8.767,1.030,3.580,-1.723,2.180,-11.058,4.632,13.958,2.548,-3.154,-0.080,0.000
'[00:00:01.052 01/01/2011]',6.949,4.947,8.649,4.624,27.898,-1.280,9.720,7.373,2.071,5.832,10.182,2.919,4.414,-0.201,3.190,-8.954,5.321,14.788,3.226,-2.780,-0.078,0.000
'[00:00:01.054 01/01/2011]',6.783,6.032,7.348,5.387,25.592,0.743,8.827,8.553,0.851,6.199,11.353,4.348,4.843,0.860,3.600,-7.647,6.078,15.251,3.510,-2.466,-0.076,0.000
'[00:00:01.056 01/01/2011]',6.557,7.393,5.666,6.104,22.859,2.785,7.691,9.459,-0.593,6.294,12.205,5.428,4.871,1.518,3.472,-7.025,6.792,15.182,3.429,-2.185,-0.074,0.000
'[00:00:01.058 01/01/2011]',6.209,8.810,3.688,6.667,19.850,4.650,6.438,10.160,-2.246,6.136,12.699,6.371,4.552,1.919,2.929,-6.816,7.349,14.488,3.062,-1.893,-0.072,0.000
'[00:00:01.060 01/01/2011]',5.694,10.088,1.521,6.991,16.745,6.191,5.142,10.790,-4.062,5.791,12.856,7.432,3.972,2.261,2.169,-6.638,7.664,13.178,2.518,-1.537,-0.070,0.000
'[00:00:01.062 01/01/2011]',5.000,11.082,-0.723,7.028,13.719,7.314,3.823,11.479,-5.981,5.334,12.725,8.823,3.221,2.746,1.395,-6.111,7.689,11.357,1.916,-1.074,-0.068,0.000
'[00:00:01.064 01/01/2011]',4.129,11.706,-2.929,6.768,10.916,7.969,2.423,12.301,-7.942,4.833,12.362,10.646,2.369,3.535,0.800,-4.914,7.402,9.204,1.362,-0.482,-0.066,0.000
'[00:00:01.066 01/01/2011]',3.101,11.918,-5.017,6.227,8.413,8.136,0.830,13.255,-9.910,4.323,11.793,12.856,1.463,4.723,0.516,-2.853,6.813,6.919,0.941,0.235,-0.065,0.000
'[00:00:01.068 01/01/2011]',1.928,11.706,-6.939,5.441,6.227,7.834,-1.081,14.254,-11.866,3.806,11.002,15.274,0.511,6.318,0.601,0.120,5.958,4.688,0.687,1.049,-0.064,0.000
'[00:00:01.070 01/01/2011]',0.633,11.082,-8.677,4.475,4.331,7.126,-3.396,15.156,-13.812,3.254,9.939,17.629,-0.490,8.253,1.045,3.912,4.900,2.654,0.603,1.916,-0.062,0.000
'[00:00:01.072 01/01/2011]',-0.758,10.086,-10.234,3.414,2.688,6.130,-6.099,15.799,-15.732,2.635,8.543,19.641,-1.550,10.397,1.786,8.327,3.735,0.918,0.652,2.786,-0.060,0.000
'[00:00:01.074 01/01/2011]',-2.184,8.802,-11.614,2.365,1.285,5.021,-9.057,16.060,-17.581,1.924,6.791,21.090,-2.665,12.584,2.733,13.099,2.575,-0.451,0.784,3.613,-0.057,0.000
'[00:00:01.076 01/01/2011]',-3.549,7.369,-12.802,1.432,0.142,3.989,-12.015,15.881,-19.265,1.129,4.709,21.850,-3.814,14.636,3.793,17.936,1.544,-1.393,0.943,4.357,-0.054,0.000
'[00:00:01.078 01/01/2011]',-4.729,5.972,-13.763,0.710,-0.694,3.218,-14.665,15.273,-20.668,0.292,2.400,21.905,-4.945,16.381,4.886,22.548,0.742,-1.849,1.079,4.980,-0.051,0.000
'[00:00:01.080 01/01/2011]',-5.587,4.809,-14.438,0.264,-1.174,2.827,-16.702,14.309,-21.661,-0.517,0.022,21.315,-5.999,17.674,5.942,26.657,0.245,-1.765,1.164,5.448,-0.048,0.000
'[00:00:01.082 01/01/2011]',-6.010,4.055,-14.770,0.097,-1.274,2.846,-17.914,13.086,-22.151,-1.213,-2.239,20.168,-6.911,18.400,6.886,30.033,0.065,-1.112,1.181,5.731,-0.045,0.000
'[00:00:01.084 01/01/2011]',-5.943,3.803,-14.732,0.171,-1.017,3.224,-18.236,11.689,-22.114,-1.731,-4.209,18.554,-7.627,18.479,7.645,32.474,0.165,0.070,1.132,5.802,-0.044,0.000
'[00:00:01.086 01/01/2011]',-5.409,4.051,-14.341,0.402,-0.480,3.854,-17.747,10.175,-21.599,-2.031,-5.759,16.528,-8.129,17.874,8.119,33.838,0.461,1.660,1.011,5.651,-0.043,0.000
'[00:00:01.088 01/01/2011]',-4.509,4.696,-13.666,0.691,0.231,4.622,-16.654,8.563,-20.733,-2.135,-6.828,14.124,-8.440,16.583,8.207,34.018,0.851,3.451,0.811,5.285,-0.043,0.000
'[00:00:01.090 01/01/2011]',-3.397,5.560,-12.815,0.950,0.997,5.431,-15.238,6.852,-19.683,-2.110,-7.413,11.375,-8.613,14.636,7.791,32.958,1.236,5.181,0.501,4.735,-0.043,0.000
'[00:00:01.092 01/01/2011]',-2.247,6.446,-11.905,1.125,1.719,6.227,-13.768,5.039,-18.623,-2.065,-7.568,8.335,-8.746,12.097,6.794,30.660,1.542,6.589,0.041,4.047,-0.042,0.000
'[00:00:01.094 01/01/2011]',-1.219,7.171,-11.046,1.189,2.330,6.970,-12.488,3.139,-17.708,-2.114,-7.376,5.093,-8.919,9.052,5.159,27.147,1.730,7.473,-0.610,3.277,-0.041,0.000
'[00:00:01.096 01/01/2011]',-0.427,7.607,-10.298,1.146,2.810,7.606,-11.563,1.191,-17.037,-2.365,-6.940,1.775,-9.231,5.615,2.888,22.503,1.783,7.743,-1.493,2.473,-0.039,0.000
'[00:00:01.098 01/01/2011]',0.062,7.673,-9.689,1.009,3.168,8.039,-11.089,-0.745,-16.656,-2.884,-6.369,-1.481,-9.740,1.917,0.035,16.851,1.707,7.431,-2.623,1.667,-0.035,0.000
'[00:00:01.100 01/01/2011]',0.220,7.330,-9.201,0.770,3.439,8.121,-11.094,-2.608,-16.556,-3.690,-5.771,-4.546,-10.466,-1.896,-3.286,10.386,1.494,6.670,-3.990,0.875,-0.029,0.000
'[00:00:01.102 01/01/2011]',0.049,6.563,-8.813,0.407,3.663,7.677,-11.536,-4.347,-16.669,-4.752,-5.241,-7.325,-11.380,-5.675,-6.901,3.345,1.125,5.650,-5.547,0.092,-0.023,0.000
'[00:00:01.104 01/01/2011]',-0.435,5.355,-8.493,-0.120,3.883,6.556,-12.301,-5.931,-16.888,-6.002,-4.845,-9.752,-12.382,-9.269,-10.587,-3.957,0.576,4.568,-7.203,-0.695,-0.015,0.000
'[00:00:01.106 01/01/2011]',-1.201,3.713,-8.225,-0.844,4.124,4.696,-13.204,-7.350,-17.059,-7.344,-4.595,-11.788,-13.314,-12.529,-14.067,-11.163,-0.166,3.593,-8.830,-1.499,-0.006,0.000
'[00:00:01.108 01/01/2011]',-2.185,1.681,-7.990,-1.759,4.416,2.154,-13.981,-8.593,-16.993,-8.660,-4.435,-13.417,-13.967,-15.326,-17.047,-17.886,-1.087,2.843,-10.267,-2.329,0.004,0.000
'[00:00:01.110 01/01/2011]',-3.289,-0.635,-7.752,-2.811,4.771,-0.870,-14.340,-9.652,-16.484,-9.821,-4.240,-14.630,-14.116,-17.552,-19.235,-23.757,-2.116,2.400,-11.345,-3.182,0.013,0.000
'[00:00:01.112 01/01/2011]',-4.373,-3.052,-7.471,-3.887,5.208,-4.075,-14.007,-10.518,-15.363,-10.712,-3.858,-15.441,-13.577,-19.155,-20.401,-28.476,-3.141,2.302,-11.906,-4.043,0.020,0.000
'[00:00:01.114 01/01/2011]',-5.287,-5.348,-7.087,-4.842,5.736,-7.111,-12.809,-11.186,-13.545,-11.249,-3.143,-15.911,-12.268,-20.128,-20.425,-31.864,-4.029,2.546,-11.860,-4.887,0.026,0.000
'[00:00:01.116 01/01/2011]',-5.903,-7.297,-6.569,-5.538,6.358,-9.648,-10.750,-11.679,-11.089,-11.414,-2.029,-16.153,-10.265,-20.549,-19.353,-33.895,-4.655,3.071,-11.217,-5.683,0.030,0.000
'[00:00:01.118 01/01/2011]',-6.152,-8.736,-5.930,-5.877,7.051,-11.447,-8.033,-12.058,-8.214,-11.263,-0.573,-16.332,-7.818,-20.558,-17.401,-34.712,-4.942,3.747,-10.111,-6.392,0.032,0.000
'[00:00:01.120 01/01/2011]',-6.061,-9.602,-5.250,-5.829,7.772,-12.390,-5.047,-12.409,-5.287,-10.932,1.042,-16.630,-5.314,-20.353,-14.933,-34.590,-4.884,4.376,-8.790,-6.977,0.030,0.000
'[00:00:01.122 01/01/2011]',-5.737,-9.947,-4.672,-5.433,8.465,-12.483,-2.290,-12.824,-2.753,-10.593,2.529,-17.201,-3.197,-20.128,-12.389,-33.910,-4.538,4.736,-7.577,-7.401,0.027,0.000
'[00:00:01.124 01/01/2011]',-5.342,-9.892,-4.358,-4.780,9.065,-11.845,-0.260,-13.345,-1.018,-10.411,3.581,-18.093,-1.853,-20.035,-10.209,-33.026,-4.000,4.644,-6.803,-7.639,0.023,0.000
'[00:00:01.126 01/01/2011]',-5.031,-9.573,-4.445,-3.973,9.534,-10.653,0.675,-13.953,-0.351,-10.487,3.954,-19.242,-1.514,-20.136,-8.729,-32.241,-3.369,4.022,-6.720,-7.678,0.017,0.000
'[00:00:01.128 01/01/2011]',-4.897,-9.095,-4.979,-3.104,9.879,-9.115,0.345,-14.535,-0.798,-10.809,3.520,-20.443,-2.194,-20.393,-8.130,-31.729,-2.713,2.945,-7.451,-7.525,0.011,0.000
'[00:00:01.130 01/01/2011]',-4.943,-8.476,-5.894,-2.225,10.158,-7.411,-1.192,-14.919,-2.179,-11.263,2.317,-21.428,-3.695,-20.676,-8.416,-31.527,-2.049,1.637,-8.952,-7.203,0.005,0.000
'[00:00:01.132 01/01/2011]',-5.085,-7.665,-7.018,-1.348,10.473,-5.686,-3.676,-14.922,-4.129,-11.657,0.520,-21.929,-5.668,-20.817,-9.442,-31.557,-1.355,0.411,-11.025,-6.748,-0.000,0.000
'[00:00:01.134 01/01/2011]',-5.180,-6.585,-8.112,-0.458,10.944,-4.033,-6.730,-14.406,-6.196,-11.778,-1.609,-21.771,-7.715,-20.652,-10.968,-31.672,-0.580,-0.425,-13.373,-6.206,-0.005,0.000
'[00:00:01.136 01/01/2011]',-5.083,-5.183,-8.920,0.475,11.675,-2.496,-9.941,-13.327,-7.957,-11.458,-3.789,-20.912,-9.480,-20.075,-12.723,-31.704,0.325,-0.656,-15.661,-5.621,-0.008,0.000
'[00:00:01.138 01/01/2011]',-4.684,-3.460,-9.234,1.480,12.718,-1.075,-12.927,-11.741,-9.091,-10.607,-5.773,-19.461,-10.730,-19.050,-14.457,-31.512,1.393,-0.225,-17.578,-5.030,-0.012,0.000
'[00:00:01.140 01/01/2011]',-3.944,-1.507,-8.925,2.582,14.061,0.255,-15.396,-9.788,-9.430,-9.224,-7.392,-17.612,-11.355,-17.609,-15.969,-30.985,2.627,0.776,-18.888,-4.456,-0.015,0.000
'[00:00:01.142 01/01/2011]',-2.892,0.529,-7.954,3.784,15.608,1.541,-17.149,-7.639,-8.953,-7.390,-8.565,-15.589,-11.360,-15.828,-17.115,-30.050,4.010,2.135,-19.448,-3.905,-0.019,0.000
'[00:00:01.144 01/01/2011]',-1.613,2.472,-6.387,5.082,17.212,2.827,-18.094,-5.452,-7.770,-5.236,-9.283,-13.558,-10.844,-13.787,-17.804,-28.666,5.491,3.602,-19.216,-3.369,-0.024,0.000
'[00:00:01.146 01/01/2011]',-0.226,4.158,-4.365,6.436,18.678,4.134,-18.247,-3.335,-6.069,-2.916,-9.601,-11.597,-9.949,-11.559,-17.987,-26.805,7.004,4.940,-18.246,-2.827,-0.030,0.000
'[00:00:01.148 01/01/2011]',1.124,5.467,-2.103,7.778,19.795,5.446,-17.705,-1.343,-4.100,-0.593,-9.619,-9.683,-8.852,-9.197,-17.661,-24.456,8.447,5.981,-16.674,-2.254,-0.037,0.000
'[00:00:01.150 01/01/2011]',2.303,6.340,0.143,9.000,20.371,6.710,-16.654,0.515,-2.138,1.578,-9.472,-7.734,-7.733,-6.745,-16.864,-21.636,9.704,6.619,-14.693,-1.629,-0.045,0.000
'[00:00:01.152 01/01/2011]',3.185,6.776,2.093,9.978,20.254,7.825,-15.333,2.252,-0.459,3.458,-9.315,-5.646,-6.779,-4.240,-15.679,-18.378,10.647,6.810,-12.529,-0.937,-0.053,0.000
'[00:00:01.154 01/01/2011]',3.680,6.829,3.491,10.589,19.370,8.689,-13.976,3.890,0.703,4.949,-9.295,-3.337,-6.133,-1.718,-14.214,-14.743,11.175,6.555,-10.399,-0.177,-0.060,0.000
'[00:00:01.156 01/01/2011]',3.748,6.607,4.153,10.768,17.736,9.227,-12.774,5.452,1.198,6.013,-9.513,-0.757,-5.877,0.803,-12.601,-10.795,11.240,5.892,-8.469,0.644,-0.066,0.000
'[00:00:01.158 01/01/2011]',3.412,6.245,3.995,10.515,15.480,9.424,-11.815,6.969,0.994,6.679,-10.009,2.100,-5.988,3.313,-10.946,-6.593,10.869,4.893,-6.822,1.509,-0.070,0.000
'[00:00:01.160 01/01/2011]',2.758,5.890,3.072,9.924,12.824,9.339,-11.085,8.479,0.194,7.054,-10.731,5.213,-6.348,5.825,-9.341,-2.191,10.178,3.661,-5.451,2.395,-0.074,0.000
'[00:00:01.162 01/01/2011]',1.919,5.668,1.567,9.150,10.047,9.096,-10.490,10.020,-0.998,7.284,-11.559,8.522,-6.770,8.352,-7.839,2.361,9.340,2.328,-4.284,3.283,-0.076,0.000
'[00:00:01.164 01/01/2011]',1.046,5.661,-0.250,8.387,7.448,8.849,-9.890,11.612,-2.327,7.518,-12.334,11.941,-7.060,10.892,-6.473,6.963,8.556,1.028,-3.215,4.150,-0.078,0.000
'[00:00:01.166 01/01/2011]',0.282,5.884,-2.065,7.817,5.287,8.740,-9.186,13.243,-3.557,7.868,-12.907,15.314,-7.086,13.400,-5.264,11.497,8.007,-0.118,-2.159,4.977,-0.079,0.000
'[00:00:01.168 01/01/2011]',-0.266,6.298,-3.588,7.582,3.744,8.868,-8.346,14.860,-4.524,8.385,-13.178,18.451,-6.823,15.793,-4.230,15.780,7.825,-1.025,-1.083,5.747,-0.081,0.000
'[00:00:01.170 01/01/2011]',-0.538,6.831,-4.588,7.769,2.891,9.270,-7.419,16.371,-5.161,9.055,-13.121,21.131,-6.352,17.956,-3.382,19.612,8.083,-1.652,0.002,6.443,-0.081,0.000
'[00:00:01.172 01/01/2011]',-0.502,7.411,-4.923,8.405,2.688,9.922,-6.518,17.677,-5.474,9.824,-12.780,23.148,-5.821,19.775,-2.709,22.817,8.789,-1.990,1.044,7.048,-0.082,0.000
'[00:00:01.174 01/01/2011]',-0.164,7.989,-4.544,9.462,3.002,10.756,-5.756,18.695,-5.502,10.624,-12.230,24.359,-5.372,21.175,-2.160,25.288,9.906,-2.063,2.006,7.548,-0.082,0.000
'[00:00:01.176 01/01/2011]',0.450,8.555,-3.502,10.872,3.631,11.683,-5.214,19.363,-5.285,11.403,-11.553,24.715,-5.083,22.131,-1.644,27.010,11.355,-1.906,2.884,7.926,-0.082,0.000
'[00:00:01.178 01/01/2011]',1.292,9.110,-1.919,12.517,4.339,12.599,-4.889,19.662,-4.821,12.126,-10.800,24.263,-4.932,22.676,-1.041,28.064,13.019,-1.578,3.718,8.167,-0.081,0.000
'[00:00:01.180 01/01/2011]',2.284,9.650,0.010,14.236,4.881,13.398,-4.703,19.584,-4.093,12.766,-9.980,23.121,-4.811,22.872,-0.232,28.591,14.754,-1.146,4.588,8.257,-0.080,0.000
'[00:00:01.182 01/01/2011]',3.322,10.146,2.050,15.838,5.051,13.995,-4.527,19.134,-3.087,13.292,-9.071,21.444,-4.578,22.782,0.857,28.741,16.381,-0.693,5.577,8.188,-0.079,0.000
'[00:00:01.184 01/01/2011]',4.286,10.543,3.941,17.126,4.706,14.327,-4.227,18.309,-1.834,13.661,-8.031,19.371,-4.116,22.445,2.232,28.611,17.726,-0.325,6.747,7.955,-0.076,0.000
'[00:00:01.186 01/01/2011]',5.054,10.772,5.449,17.941,3.783,14.381,-3.705,17.104,-0.419,13.827,-6.830,17.000,-3.375,21.859,3.813,28.219,18.636,-0.124,8.117,7.563,-0.073,0.000
'[00:00:01.188 01/01/2011]',5.539,10.783,6.387,18.201,2.324,14.202,-2.933,15.532,1.020,13.749,-5.445,14.382,-2.384,20.994,5.456,27.489,19.017,-0.149,9.655,7.023,-0.067,0.000
'[00:00:01.190 01/01/2011]',5.692,10.545,6.655,17.914,0.460,13.879,-1.944,13.634,2.334,13.419,-3.881,11.532,-1.236,19.820,6.991,26.288,18.862,-0.409,11.284,6.358,-0.059,0.000
'[00:00:01.192 01/01/2011]',5.514,10.067,6.254,17.182,-1.615,13.530,-0.833,11.479,3.400,12.856,-2.160,8.460,-0.038,18.319,8.252,24.444,18.238,-0.857,12.892,5.592,-0.048,0.000
'[00:00:01.194 01/01/2011]',5.043,9.379,5.270,16.166,-3.678,13.250,0.286,9.163,4.156,12.096,-0.318,5.187,1.118,16.504,9.129,21.796,17.280,-1.395,14.353,4.754,-0.035,0.000
'[00:00:01.196 01/01/2011]',4.340,8.517,3.847,15.027,-5.531,13.091,1.309,6.785,4.601,11.178,1.591,1.763,2.182,14.409,9.575,18.233,16.130,-1.912,15.513,3.874,-0.018,0.000
'[00:00:01.198 01/01/2011]',3.477,7.515,2.162,13.902,-7.023,13.041,2.153,4.433,4.797,10.105,3.495,-1.716,3.129,12.088,9.603,13.716,14.921,-2.313,16.230,2.985,0.004,0.000
'[00:00:01.200 01/01/2011]',2.520,6.415,0.394,12.861,-8.070,13.032,2.763,2.165,4.814,8.860,5.292,-5.136,3.951,9.590,9.262,8.282,13.748,-2.538,16.378,2.132,0.032,0.000
'[00:00:01.202 01/01/2011]',1.538,5.271,-1.303,11.924,-8.653,12.965,3.098,0.023,4.713,7.409,6.866,-8.360,4.619,6.953,8.613,2.046,12.661,-2.601,15.869,1.366,0.067,0.000
'[00:00:01.204 01/01/2011]',0.597,4.149,-2.806,11.072,-8.797,12.756,3.124,-1.967,4.522,5.744,8.082,-11.257,5.078,4.204,7.699,-4.802,11.686,-2.582,14.685,0.746,0.110,0.000
'[00:00:01.206 01/01/2011]',-0.238,3.127,-4.015,10.294,-8.550,12.359,2.807,-3.774,4.240,3.901,8.814,-13.713,5.243,1.375,6.545,-12.017,10.836,-2.594,12.887,0.331,0.162,0.000
'[00:00:01.208 01/01/2011]',-0.908,2.270,-4.859,9.584,-7.966,11.778,2.124,-5.363,3.844,1.984,8.967,-15.653,5.030,-1.485,5.144,-19.320,10.128,-2.771,10.620,0.168,0.221,0.000
'[00:00:01.210 01/01/2011]',-1.383,1.607,-5.293,8.966,-7.099,11.052,1.076,-6.700,3.325,0.148,8.494,-17.060,4.384,-4.314,3.478,-26.413,9.577,-3.222,8.086,0.276,0.285,0.000
'[00:00:01.212 01/01/2011]',-1.652,1.126,-5.319,8.459,-6.000,10.245,-0.298,-7.758,2.692,-1.449,7.407,-17.964,3.296,-7.030,1.541,-33.008,9.185,-3.999,5.510,0.640,0.350,0.000
'[00:00:01.214 01/01/2011]',-1.743,0.771,-4.963,8.069,-4.719,9.422,-1.915,-8.541,1.989,-2.678,5.779,-18.458,1.810,-9.544,-0.660,-38.857,8.927,-5.079,3.095,1.211,0.412,0.000
'[00:00:01.216 01/01/2011]',-1.697,0.480,-4.304,7.775,-3.314,8.647,-3.663,-9.084,1.278,-3.484,3.732,-18.659,0.022,-11.770,-3.085,-43.764,8.749,-6.362,1.000,1.906,0.466,0.000
'[00:00:01.218 01/01/2011]',-1.558,0.222,-3.450,7.530,-1.839,7.973,-5.418,-9.435,0.644,-3.880,1.427,-18.694,-1.954,-13.641,-5.660,-47.601,8.581,-7.691,-0.693,2.624,0.509,0.000
'[00:00:01.220 01/01/2011]',-1.356,0.016,-2.525,7.290,-0.342,7.464,-7.074,-9.634,0.158,-3.932,-0.977,-18.659,-3.992,-15.090,-8.283,-50.309,8.355,-8.870,-1.957,3.269,0.536,0.000
'[00:00:01.222 01/01/2011]',-1.096,-0.048,-1.649,7.026,1.139,7.188,-8.552,-9.684,-0.113,-3.725,-3.322,-18.597,-5.979,-16.058,-10.839,-51.886,8.045,-9.709,-2.814,3.757,0.546,0.000
'[00:00:01.224 01/01/2011]',-0.762,0.150,-0.923,6.754,2.585,7.207,-9.800,-9.545,-0.124,-3.308,-5.492,-18.482,-7.819,-16.481,-13.202,-52.363,7.672,-10.059,-3.310,4.033,0.536,0.000
'[00:00:01.226 01/01/2011]',-0.338,0.729,-0.401,6.531,3.979,7.559,-10.799,-9.134,0.149,-2.703,-7.415,-18.221,-9.431,-16.290,-15.255,-51.793,7.305,-9.844,-3.502,4.083,0.506,0.000
'[00:00:01.228 01/01/2011]',0.182,1.739,-0.110,6.417,5.300,8.220,-11.558,-8.357,0.694,-1.896,-9.081,-17.672,-10.766,-15.424,-16.903,-50.237,7.027,-9.078,-3.445,3.923,0.458,0.000
'[00:00:01.230 01/01/2011]',0.762,3.136,-0.041,6.448,6.504,9.101,-12.111,-7.141,1.462,-0.885,-10.525,-16.690,-11.790,-13.859,-18.083,-47.761,6.905,-7.869,-3.205,3.607,0.395,0.000
'[00:00:01.232 01/01/2011]',1.321,4.747,-0.174,6.603,7.512,10.040,-12.515,-5.472,2.350,0.301,-11.828,-15.152,-12.515,-11.629,-18.785,-44.456,6.939,-6.401,-2.855,3.206,0.320,0.000
'[00:00:01.234 01/01/2011]',1.734,6.309,-0.493,6.797,8.232,10.834,-12.867,-3.419,3.215,1.579,-13.088,-13.004,-12.990,-8.851,-19.056,-40.446,7.062,-4.900,-2.486,2.802,0.240,0.000
'[00:00:01.236 01/01/2011]',1.863,7.513,-0.994,6.898,8.574,11.278,-13.277,-1.116,3.889,2.830,-14.393,-10.275,-13.302,-5.715,-19.004,-35.904,7.153,-3.582,-2.192,2.469,0.160,0.000
'[00:00:01.238 01/01/2011]',1.597,8.083,-1.674,6.777,8.498,11.229,-13.852,1.258,4.209,3.918,-15.811,-7.084,-13.567,-2.467,-18.779,-31.065,7.081,-2.624,-2.059,2.266,0.086,0.000
'[00:00:01.240 01/01/2011]',0.876,7.847,-2.515,6.349,8.027,10.625,-14.661,3.520,4.067,4.747,-17.371,-3.624,-13.896,0.634,-18.547,-26.173,6.748,-2.108,-2.141,2.223,0.023,0.000
'[00:00:01.242 01/01/2011]',-0.265,6.794,-3.484,5.616,7.268,9.521,-15.704,5.522,3.434,5.269,-19.047,-0.117,-14.366,3.370,-18.448,-21.473,6.130,-2.030,-2.455,2.345,-0.027,0.000
'[00:00:01.244 01/01/2011]',-1.702,5.082,-4.503,4.659,6.377,8.057,-16.901,7.166,2.381,5.501,-20.768,3.211,-14.998,5.595,-18.566,-17.146,5.282,-2.303,-2.960,2.609,-0.062,0.000
'[00:00:01.246 01/01/2011]',-3.246,3.012,-5.480,3.618,5.524,6.436,-18.111,8.416,1.061,5.496,-22.426,6.178,-15.743,7.264,-18.903,-13.281,4.318,-2.798,-3.590,2.975,-0.084,0.000
'[00:00:01.248 01/01/2011]',-4.683,0.941,-6.321,2.634,4.843,4.871,-19.174,9.275,-0.325,5.318,-23.888,8.661,-16.500,8.413,-19.373,-9.861,3.365,-3.385,-4.251,3.400,-0.095,0.000
'[00:00:01.250 01/01/2011]',-5.831,-0.789,-6.960,1.816,4.398,3.552,-19.956,9.779,-1.590,5.010,-25.012,10.612,-17.141,9.147,-19.832,-6.776,2.527,-3.973,-4.868,3.844,-0.098,0.000
'[00:00:01.252 01/01/2011]',-6.586,-1.948,-7.379,1.205,4.163,2.629,-20.390,9.980,-2.586,4.580,-25.681,12.048,-17.549,9.597,-20.116,-3.855,1.858,-4.531,-5.394,4.277,-0.097,0.000
'[00:00:01.254 01/01/2011]',-6.933,-2.451,-7.622,0.788,4.047,2.192,-20.494,9.936,-3.258,4.031,-25.817,13.042,-17.647,9.900,-20.068,-0.907,1.355,-5.082,-5.809,4.690,-0.092,0.000
'[00:00:01.256 01/01/2011]',-6.945,-2.369,-7.770,0.524,3.918,2.301,-20.349,9.729,-3.620,3.373,-25.393,13.709,-17.414,10.178,-19.576,2.236,0.993,-5.667,-6.111,5.088,-0.088,0.000
'[00:00:01.258 01/01/2011]',-6.739,-1.867,-7.913,0.380,3.639,2.973,-20.060,9.450,-3.738,2.652,-24.453,14.191,-16.873,10.534,-18.582,5.676,0.758,-6.320,-6.292,5.485,-0.084,0.000
'[00:00:01.260 01/01/2011]',-6.442,-1.161,-8.112,0.363,3.089,4.206,-19.705,9.195,-3.699,1.954,-23.091,14.611,-16.074,11.055,-17.069,9.464,0.656,-7.025,-6.318,5.898,-0.082,0.000
'[00:00:01.262 01/01/2011]',-6.144,-0.425,-8.391,0.516,2.188,5.969,-19.303,9.054,-3.562,1.386,-21.437,15.070,-15.066,11.800,-15.069,13.556,0.735,-7.711,-6.127,6.332,-0.082,0.000
'[00:00:01.264 01/01/2011]',-5.882,0.223,-8.708,0.904,0.901,8.174,-18.815,9.078,-3.355,1.045,-19.634,15.606,-13.885,12.792,-12.649,17.828,1.050,-8.257,-5.645,6.776,-0.084,0.000
'[00:00:01.266 01/01/2011]',-5.649,0.751,-9.007,1.565,-0.759,10.678,-18.144,9.248,-3.069,0.974,-17.811,16.186,-12.540,13.993,-9.903,22.075,1.640,-8.530,-4.815,7.194,-0.087,0.000
'[00:00:01.268 01/01/2011]',-5.417,1.170,-9.222,2.489,-2.710,13.265,-17.198,9.472,-2.683,1.152,-16.070,16.697,-11.029,15.303,-6.954,26.020,2.487,-8.419,-3.622,7.528,-0.090,0.000
'[00:00:01.270 01/01/2011]',-5.155,1.510,-9.316,3.583,-4.809,15.667,-15.921,9.619,-2.188,1.486,-14.471,16.975,-9.350,16.553,-3.955,29.348,3.507,-7.867,-2.105,7.702,-0.093,0.000
'[00:00:01.272 01/01/2011]',-4.855,1.790,-9.298,4.706,-6.844,17.593,-14.311,9.540,-1.602,1.857,-13.035,16.859,-7.516,17.554,-1.067,31.744,4.551,-6.894,-0.364,7.648,-0.095,0.000
'[00:00:01.274 01/01/2011]',-4.531,1.997,-9.191,5.685,-8.557,18.799,-12.442,9.124,-0.976,2.147,-11.750,16.224,-5.562,18.121,1.559,32.933,5.458,-5.590,1.469,7.312,-0.096,0.000
'[00:00:01.276 01/01/2011]',-4.206,2.104,-9.030,6.374,-9.692,19.120,-10.430,8.326,-0.374,2.286,-10.582,15.025,-3.541,18.133,3.808,32.763,6.071,-4.099,3.259,6.674,-0.095,0.000
'[00:00:01.278 01/01/2011]',-3.897,2.080,-8.836,6.677,-10.030,18.526,-8.405,7.186,0.146,2.249,-9.487,13.310,-1.519,17.542,5.616,31.179,6.292,-2.580,4.885,5.753,-0.094,0.000
'[00:00:01.280 01/01/2011]',-3.614,1.899,-8.598,6.558,-9.451,17.116,-6.465,5.796,0.552,2.052,-8.422,11.190,0.425,16.376,6.967,28.264,6.084,-1.186,6.251,4.607,-0.093,0.000
'[00:00:01.282 01/01/2011]',-3.356,1.542,-8.289,6.040,-7.948,15.089,-4.666,4.262,0.845,1.716,-7.350,8.796,2.205,14.707,7.881,24.207,5.460,-0.040,7.280,3.311,-0.092,0.000
'[00:00:01.284 01/01/2011]',-3.128,0.985,-7.895,5.160,-5.649,12.699,-3.006,2.660,1.047,1.235,-6.252,6.248,3.741,12.621,8.399,19.262,4.458,0.774,7.901,1.951,-0.093,0.000
'[00:00:01.286 01/01/2011]',-2.948,0.201,-7.427,3.955,-2.784,10.205,-1.452,1.014,1.189,0.563,-5.131,3.624,4.944,10.182,8.554,13.713,3.122,1.224,8.057,0.601,-0.094,0.000
'[00:00:01.288 01/01/2011]',-2.849,-0.828,-6.949,2.460,0.351,7.836,0.049,-0.705,1.280,-0.375,-4.021,0.958,5.756,7.422,8.366,7.827,1.496,1.311,7.696,-0.681,-0.096,0.000
'[00:00:01.290 01/01/2011]',-2.860,-2.078,-6.551,0.712,3.443,5.792,1.530,-2.535,1.314,-1.644,-2.969,-1.730,6.117,4.374,7.848,1.851,-0.371,1.078,6.811,-1.854,-0.098,0.000
'[00:00:01.292 01/01/2011]',-2.987,-3.456,-6.336,-1.216,6.209,4.232,2.993,-4.496,1.259,-3.271,-2.035,-4.405,6.016,1.081,7.022,-4.007,-2.388,0.598,5.448,-2.893,-0.100,0.000
'[00:00:01.294 01/01/2011]',-3.195,-4.784,-6.377,-3.201,8.426,3.290,4.392,-6.546,1.070,-5.211,-1.270,-6.997,5.491,-2.355,5.931,-9.564,-4.419,-0.037,3.723,-3.776,-0.100,0.000
'[00:00:01.296 01/01/2011]',-3.407,-5.820,-6.699,-5.069,9.958,3.043,5.645,-8.583,0.712,-7.344,-0.701,-9.398,4.606,-5.785,4.669,-14.645,-6.291,-0.742,1.804,-4.486,-0.099,0.000
'[00:00:01.298 01/01/2011]',-3.531,-6.325,-7.277,-6.638,10.754,3.486,6.633,-10.463,0.153,-9.511,-0.314,-11.491,3.471,-9.011,3.367,-19.092,-7.815,-1.455,-0.121,-5.013,-0.098,0.000
'[00:00:01.300 01/01/2011]',-3.501,-6.142,-8.054,-7.767,10.837,4.495,7.225,-12.043,-0.620,-11.540,-0.071,-13.171,2.204,-11.837,2.182,-22.750,-8.866,-2.152,-1.892,-5.357,-0.096,0.000
'[00:00:01.302 01/01/2011]',-3.306,-5.256,-8.963,-8.407,10.287,5.823,7.291,-13.223,-1.624,-13.304,0.100,-14.375,0.913,-14.107,1.274,-25.483,-9.399,-2.851,-3.408,-5.531,-0.094,0.000
'[00:00:01.304 01/01/2011]',-3.002,-3.819,-9.955,-8.607,9.229,7.137,6.751,-13.961,-2.854,-14.727,0.267,-15.096,-0.303,-15.733,0.765,-27.190,-9.486,-3.608,-4.650,-5.562,-0.091,0.000
'[00:00:01.306 01/01/2011]',-2.697,-2.115,-10.995,-8.502,7.811,8.114,5.598,-14.284,-4.289,-15.788,0.485,-15.362,-1.380,-16.708,0.715,-27.822,-9.279,-4.453,-5.661,-5.485,-0.089,0.000
'[00:00:01.308 01/01/2011]',-2.504,-0.478,-12.046,-8.250,6.207,8.522,3.943,-14.245,-5.869,-16.496,0.777,-15.225,-2.280,-17.090,1.100,-27.412,-8.950,-5.388,-6.513,-5.332,-0.086,0.000
'[00:00:01.310 01/01/2011]',-2.493,0.806,-13.043,-7.968,4.604,8.302,2.017,-13.901,-7.468,-16.857,1.130,-14.724,-2.981,-16.978,1.810,-26.080,-8.628,-6.338,-7.265,-5.125,-0.084,0.000
'[00:00:01.312 01/01/2011]',-2.660,1.576,-13.876,-7.687,3.203,7.589,0.156,-13.281,-8.903,-16.855,1.497,-13.883,-3.481,-16.462,2.671,-24.032,-8.343,-7.167,-7.930,-4.871,-0.081,0.000
'[00:00:01.314 01/01/2011]',-2.927,1.825,-14.413,-7.342,2.190,6.658,-1.272,-12.384,-9.960,-16.451,1.813,-12.708,-3.782,-15.630,3.478,-21.536,-8.033,-7.701,-8.466,-4.561,-0.079,0.000
'[00:00:01.316 01/01/2011]',-3.164,1.670,-14.515,-6.818,1.708,5.826,-1.954,-11.190,-10.442,-15.607,2.005,-11.202,-3.903,-14.535,4.027,-18.883,-7.569,-7.777,-8.801,-4.183,-0.076,0.000
'[00:00:01.318 01/01/2011]',-3.257,1.304,-14.106,-6.009,1.830,5.344,-1.726,-9.686,-10.228,-14.303,1.998,-9.384,-3.877,-13.218,4.154,-16.357,-6.836,-7.297,-8.868,-3.730,-0.074,0.000
'[00:00:01.320 01/01/2011]',-3.139,0.919,-13.209,-4.878,2.522,5.329,-0.638,-7.893,-9.318,-12.583,1.739,-7.313,-3.767,-11.715,3.751,-14.183,-5.785,-6.256,-8.642,-3.207,-0.072,0.000
'[00:00:01.322 01/01/2011]',-2.818,0.670,-11.959,-3.495,3.646,5.747,1.046,-5.881,-7.856,-10.554,1.189,-5.081,-3.661,-10.070,2.785,-12.514,-4.479,-4.756,-8.162,-2.632,-0.070,0.000
'[00:00:01.324 01/01/2011]',-2.373,0.639,-10.584,-2.019,4.983,6.446,2.911,-3.749,-6.092,-8.380,0.341,-2.807,-3.665,-8.340,1.274,-11.412,-3.067,-2.984,-7.520,-2.031,-0.068,0.000
'[00:00:01.326 01/01/2011]',-1.919,0.849,-9.337,-0.652,6.283,7.240,4.496,-1.617,-4.328,-6.250,-0.785,-0.605,-3.893,-6.581,-0.697,-10.865,-1.749,-1.170,-6.839,-1.430,-0.065,0.000
'[00:00:01.328 01/01/2011]',-1.566,1.285,-8.434,0.415,7.322,7.973,5.423,0.411,-2.837,-4.344,-2.137,1.434,-4.432,-4.845,-3.017,-10.768,-0.714,0.467,-6.227,-0.841,-0.063,0.000
'[00:00:01.330 01/01/2011]',-1.384,1.900,-7.997,1.059,7.961,8.552,5.491,2.264,-1.800,-2.788,-3.636,3.276,-5.329,-3.157,-5.526,-10.960,-0.078,1.754,-5.741,-0.262,-0.059,0.000
'[00:00:01.332 01/01/2011]',-1.391,2.644,-8.028,1.253,8.158,8.965,4.732,3.916,-1.268,-1.643,-5.180,4.941,-6.555,-1.513,-8.045,-11.208,0.130,2.598,-5.380,0.322,-0.056,0.000
'[00:00:01.334 01/01/2011]',-1.539,3.467,-8.414,1.059,7.983,9.246,3.384,5.380,-1.162,-0.892,-6.652,6.487,-8.008,0.119,-10.375,-11.238,-0.019,2.992,-5.084,0.930,-0.053,0.000
'[00:00:01.336 01/01/2011]',-1.748,4.322,-8.969,0.607,7.571,9.457,1.828,6.702,-1.304,-0.450,-7.935,8.003,-9.512,1.798,-12.316,-10.758,-0.398,3.024,-4.757,1.578,-0.051,0.000
'[00:00:01.338 01/01/2011]',-1.917,5.170,-9.480,0.060,7.093,9.660,0.486,7.921,-1.476,-0.183,-8.924,9.570,-10.854,3.583,-13.687,-9.509,-0.848,2.856,-4.286,2.272,-0.048,0.000
'[00:00:01.340 01/01/2011]',-1.957,5.974,-9.753,-0.429,6.711,9.905,-0.274,9.101,-1.467,0.063,-9.532,11.240,-11.807,5.526,-14.350,-7.318,-1.223,2.690,-3.577,3.000,-0.047,0.000
'[00:00:01.342 01/01/2011]',-1.804,6.693,-9.651,-0.727,6.558,10.234,-0.223,10.282,-1.118,0.438,-9.705,13.032,-12.181,7.656,-14.231,-4.132,-1.408,2.738,-2.552,3.738,-0.046,0.000
'[00:00:01.344 01/01/2011]',-1.435,7.281,-9.101,-0.760,6.722,10.669,0.701,11.492,-0.349,1.062,-9.423,14.929,-11.855,9.968,-13.333,-0.060,-1.333,3.178,-1.162,4.454,-0.045,0.000
'[00:00:01.346 01/01/2011]',-0.877,7.684,-8.097,-0.497,7.243,11.201,2.384,12.737,0.842,2.007,-8.716,16.872,-10.799,12.418,-11.726,4.662,-0.983,4.106,0.601,5.112,-0.044,0.000
'[00:00:01.348 01/01/2011]',-0.196,7.841,-6.717,0.027,8.105,11.780,4.581,13.995,2.368,3.278,-7.649,18.776,-9.077,14.932,-9.540,9.681,-0.396,5.535,2.709,5.675,-0.043,0.000
'[00:00:01.350 01/01/2011]',0.515,7.708,-5.094,0.731,9.244,12.302,6.965,15.208,4.085,4.819,-6.332,20.515,-6.833,17.398,-6.939,14.620,0.337,7.360,5.078,6.108,-0.041,0.000
